# header: 
#   title: W182(n,res) resonance parameter
#   source: EXFOR
#   user: Arjan Koning
#   date: 2025-10-25
#   format: YANDF-0.4
# exfor: 
#   author: Macklin
#   year: 1983
#   subentry: 109990023
#   X4 reaction: 74-W-182(N,G),,WID
#   X4 source: IAEA-NDS C5 file, database version 2023-08-08
#   X4 link: https://nds.iaea.org/EXFOR/109990023
# target: 
#   Z: 74
#   A: 182
#   nuclide: W182
# reaction: 
#   type: (n,res)
#   ENDF_MF: 402
#   ENDF_MT: 151
#   quantity: 
#     type: resonance parameter
#   datablock: 
#     columns: 5
#     entries: 67
##       E             dE             par           dpar       Normalization
##     [eV]           [eV]            []             []             []
   2.794000E-03   0.000000E+00   6.290001E-02   2.500000E-03   1.000000E+00
   2.873000E-03   0.000000E+00   5.680000E-02   1.600000E-03   1.000000E+00
   2.944000E-03   0.000000E+00   5.200000E-02   1.500000E-03   1.000000E+00
   3.050000E-03   0.000000E+00   6.590001E-02   2.800000E-03   1.000000E+00
   3.123000E-03   0.000000E+00   5.660000E-02   1.900000E-03   1.000000E+00
   3.205000E-03   0.000000E+00   5.250000E-02   1.600000E-03   1.000000E+00
   3.260000E-03   0.000000E+00   5.320000E-02   1.400000E-03   1.000000E+00
   3.309000E-03   0.000000E+00   5.920000E-02   2.300000E-03   1.000000E+00
   3.346000E-03   0.000000E+00   4.740001E-02   1.700000E-03   1.000000E+00
   3.416000E-03   0.000000E+00   5.220000E-02   2.400000E-03   1.000000E+00
   3.495000E-03   0.000000E+00   5.020000E-02   2.800000E-03   1.000000E+00
   3.526000E-03   0.000000E+00   5.530000E-02   1.600000E-03   1.000000E+00
   3.565000E-03   0.000000E+00   5.250000E-02   1.600000E-03   1.000000E+00
   3.605000E-03   0.000000E+00   6.490000E-02   2.500000E-03   1.000000E+00
   3.790000E-03   0.000000E+00   7.520000E-02   3.100000E-03   1.000000E+00
   3.849000E-03   0.000000E+00   7.290000E-02   3.200000E-03   1.000000E+00
   3.883000E-03   0.000000E+00   7.270000E-02   2.400000E-03   1.000000E+00
   3.977000E-03   0.000000E+00   6.080000E-02   2.000000E-03   1.000000E+00
   3.998000E-03   0.000000E+00   5.220000E-02   1.500000E-03   1.000000E+00
   4.066000E-03   0.000000E+00   5.260000E-02   2.400000E-03   1.000000E+00
   4.216000E-03   0.000000E+00   6.770000E-02   2.100000E-03   1.000000E+00
   4.270000E-03   0.000000E+00   6.290001E-02   2.000000E-03   1.000000E+00
   4.316000E-03   0.000000E+00   6.560000E-02   2.300000E-03   1.000000E+00
   4.371000E-03   0.000000E+00   7.300001E-02   3.900000E-03   1.000000E+00
   4.434000E-03   0.000000E+00   7.460000E-02   2.700000E-03   1.000000E+00
   4.496000E-03   0.000000E+00   5.820001E-02   1.500000E-03   1.000000E+00
   4.719000E-03   0.000000E+00   8.070000E-02   2.000000E-03   1.000000E+00
   4.835000E-03   0.000000E+00   4.800000E-02   2.300000E-03   1.000000E+00
   4.849000E-03   0.000000E+00   5.570000E-02   2.100000E-03   1.000000E+00
   4.916000E-03   0.000000E+00   5.730000E-02   2.600000E-03   1.000000E+00
   4.964000E-03   0.000000E+00   5.800000E-02   1.700000E-03   1.000000E+00
   5.142000E-03   0.000000E+00   4.900000E-02   1.400000E-03   1.000000E+00
   5.202000E-03   0.000000E+00   7.050000E-02   3.000000E-03   1.000000E+00
   5.542000E-03   0.000000E+00   5.320000E-02   1.500000E-03   1.000000E+00
   5.568000E-03   0.000000E+00   5.760000E-02   1.600000E-03   1.000000E+00
   5.660000E-03   0.000000E+00   7.220000E-02   6.800000E-03   1.000000E+00
   6.024000E-03   0.000000E+00   5.000000E-02   2.200000E-03   1.000000E+00
   6.191000E-03   0.000000E+00   7.740001E-02   3.500000E-03   1.000000E+00
   6.264000E-03   0.000000E+00   5.120000E-02   2.800000E-03   1.000000E+00
   6.408000E-03   0.000000E+00   7.250001E-02   3.300000E-03   1.000000E+00
   6.519000E-03   0.000000E+00   6.080000E-02   2.700000E-03   1.000000E+00
   6.543000E-03   0.000000E+00   5.080000E-02   5.600000E-03   1.000000E+00
   6.611000E-03   0.000000E+00   5.620001E-02   2.800000E-03   1.000000E+00
   6.675000E-03   0.000000E+00   6.430001E-02   3.700000E-03   1.000000E+00
   6.736000E-03   0.000000E+00   5.640000E-02   3.100000E-03   1.000000E+00
   6.750000E-03   0.000000E+00   6.710000E-02   3.000000E-03   1.000000E+00
   6.865000E-03   0.000000E+00   6.780001E-02   2.700000E-03   1.000000E+00
   7.020000E-03   0.000000E+00   5.270001E-02   2.500000E-03   1.000000E+00
   7.105000E-03   0.000000E+00   8.370000E-02   3.600000E-03   1.000000E+00
   7.161000E-03   0.000000E+00   5.520000E-02   4.200000E-03   1.000000E+00
   7.248000E-03   0.000000E+00   7.890001E-02   2.800000E-03   1.000000E+00
   7.290000E-03   0.000000E+00   5.470001E-02   2.400000E-03   1.000000E+00
   7.476000E-03   0.000000E+00   5.900000E-02   3.100000E-03   1.000000E+00
   7.556000E-03   0.000000E+00   6.590001E-02   3.600000E-03   1.000000E+00
   7.592000E-03   0.000000E+00   5.080000E-02   2.400000E-03   1.000000E+00
   7.697000E-03   0.000000E+00   7.660000E-02   3.700000E-03   1.000000E+00
   7.752000E-03   0.000000E+00   7.350001E-02   3.100000E-03   1.000000E+00
   7.818000E-03   0.000000E+00   6.280001E-02   4.600000E-03   1.000000E+00
   7.840000E-03   0.000000E+00   6.810001E-02   3.200000E-03   1.000000E+00
   8.016000E-03   0.000000E+00   6.480001E-02   3.400000E-03   1.000000E+00
   8.200000E-03   0.000000E+00   5.010000E-02   2.900000E-03   1.000000E+00
   8.400000E-03   0.000000E+00   7.440001E-02   4.100000E-03   1.000000E+00
   8.509000E-03   0.000000E+00   4.780000E-02   3.400000E-03   1.000000E+00
   8.542000E-03   0.000000E+00   5.520000E-02   3.500000E-03   1.000000E+00
   8.731000E-03   0.000000E+00   6.130000E-02   4.500000E-03   1.000000E+00
   8.806000E-03   0.000000E+00   4.690000E-02   3.800000E-03   1.000000E+00
   9.013000E-03   0.000000E+00   7.630001E-02   4.600000E-03   1.000000E+00
# reference:
#   author: R.L.MACKLIN,D.M.DRAKE,E.D.ARTHUR
#   title: NEUTRON-CAPTURE CROSS SECTIONS OF 182W, 183W, 184W,  AND 186W FROM 2.6 TO 2000 KEV.
#   journal: Jour: Nuclear Science and Engineering, Vol.84, p.98 (1983)
