# header: 
#   title: Ta181(n,res) resonance parameter
#   source: EXFOR
#   user: Arjan Koning
#   date: 2025-10-25
#   format: YANDF-0.4
# exfor: 
#   author: Desjardins
#   year: 1960
#   subentry: 119480084
#   X4 reaction: 73-TA-181(N,EL),,WID/RED,,2G
#   X4 source: IAEA-NDS C5 file, database version 2023-08-08
#   X4 link: https://nds.iaea.org/EXFOR/119480084
# target: 
#   Z: 73
#   A: 181
#   nuclide: Ta181
# reaction: 
#   type: (n,res)
#   ENDF_MF: 402
#   ENDF_MT: 151
#   quantity: 
#     type: resonance parameter
#   datablock: 
#     columns: 5
#     entries: 57
##       E             dE             par           dpar       Normalization
##     [eV]           [eV]            []             []             []
   7.690000E-05   2.000000E-07   1.250000E-03   1.900000E-04   1.000000E+00
   7.770000E-05   2.000000E-07   6.200000E-04   1.200000E-04   1.000000E+00
   7.900000E-05   2.000000E-07   2.200000E-04   3.000000E-05   1.000000E+00
   8.300000E-05   2.000000E-07   1.760000E-03   2.200000E-04   1.000000E+00
   8.519999E-05   2.000000E-07   4.800000E-04   5.000000E-05   1.000000E+00
   8.970000E-05   2.000000E-07   3.700000E-04   3.000000E-05   1.000000E+00
   9.150000E-05   2.000000E-07   2.500000E-04   3.000000E-05   1.000000E+00
   9.710000E-05   2.000000E-07   4.100000E-04   1.000000E-04   1.000000E+00
   9.940000E-05   2.000000E-07   1.260000E-02   2.500000E-03   1.000000E+00
   1.036000E-04   2.000000E-07   1.000000E-04   2.000000E-05   1.000000E+00
   1.056000E-04   2.000000E-07   3.100000E-03   3.000000E-04   1.000000E+00
   1.152000E-04   2.000000E-07   4.500000E-03   4.700000E-04   1.000000E+00
   1.184000E-04   2.000000E-07   2.100000E-04   3.700000E-05   1.000000E+00
   1.266000E-04   2.000000E-07   4.000000E-03   3.600000E-04   1.000000E+00
   1.366000E-04   3.000000E-07   2.100000E-03   4.000000E-04   1.000000E+00
   1.385000E-04   3.000000E-07   1.100000E-03   1.700000E-04   1.000000E+00
   1.443000E-04   3.000000E-07   1.400000E-04   2.500000E-05   1.000000E+00
   1.485000E-04   3.000000E-07   3.940000E-04   4.100000E-05   1.000000E+00
   1.495000E-04   3.000000E-07   4.900000E-04   5.000000E-05   1.000000E+00
   1.600000E-04   3.000000E-07   2.800000E-05   6.000000E-06   1.000000E+00
   1.665000E-04   3.000000E-07   7.000000E-04   8.000000E-05   1.000000E+00
   1.787000E-04   4.000000E-07   7.500000E-05   4.000000E-05   1.000000E+00
   1.827000E-04   4.000000E-07   6.300000E-05   8.000000E-06   1.000000E+00
   1.858000E-04   4.000000E-07   4.400000E-05   7.000000E-06   1.000000E+00
   1.895000E-04   4.000000E-07   5.100000E-05   8.000000E-06   1.000000E+00
   1.950000E-04   5.000000E-07   5.300000E-03   7.000000E-04   1.000000E+00
   2.005000E-04   4.000000E-07   2.800000E-03   4.000000E-04   1.000000E+00
   2.049000E-04   4.000000E-07   2.000000E-04   2.000000E-05   1.000000E+00
   2.085000E-04   4.000000E-07   9.000000E-04   1.400000E-04   1.000000E+00
   2.155000E-04   4.000000E-07   2.930000E-03   4.500000E-04   1.000000E+00
   2.170000E-04   4.000000E-07   1.020000E-03   4.000000E-04   1.000000E+00
   2.200000E-04   4.000000E-07   1.180000E-03   1.800000E-04   1.000000E+00
   2.225000E-04   5.000000E-07   1.200000E-04   2.400000E-05   1.000000E+00
   2.255000E-04   5.000000E-07   1.860000E-03   2.800000E-04   1.000000E+00
   2.308000E-04   5.000000E-07   2.100000E-03   5.000000E-04   1.000000E+00
   2.325000E-04   5.000000E-07   4.300000E-03   1.100000E-03   1.000000E+00
   2.375000E-04   5.000000E-07   9.000000E-05   2.000000E-05   1.000000E+00
   2.430000E-04   5.000000E-07   6.400000E-04   1.300000E-04   1.000000E+00
   2.470000E-04   5.000000E-07   4.700000E-04   7.000000E-05   1.000000E+00
   2.485000E-04   5.000000E-07   8.900000E-05   3.100000E-05   1.000000E+00
   2.533000E-04   5.000000E-07   1.900000E-05   4.000000E-06   1.000000E+00
   2.595000E-04   5.000000E-07   6.850000E-04   1.000000E-04   1.000000E+00
   2.600000E-04   5.000000E-07   3.700000E-05   2.000000E-05   1.000000E+00
   2.635000E-04   5.000000E-07   5.860000E-03   1.500000E-03   1.000000E+00
   2.645000E-04   5.000000E-07   8.600000E-04   2.600000E-04   1.000000E+00
   2.722000E-04   5.000000E-07   8.500000E-04   2.600000E-04   1.000000E+00
   2.740000E-04   5.000000E-07   6.050000E-03   1.500000E-03   1.000000E+00
   2.775000E-04   6.000000E-07   1.500000E-03   4.500000E-04   1.000000E+00
   2.805000E-04   6.000000E-07   1.790000E-03   3.600000E-04   1.000000E+00
   2.882000E-04   6.000000E-07   1.590000E-03   3.200000E-04   1.000000E+00
   3.045000E-04   6.000000E-07   1.550000E-04   4.000000E-05   1.000000E+00
   3.065000E-04   6.000000E-07   1.770000E-03   4.500000E-04   1.000000E+00
   3.120000E-04   6.000000E-07   1.410000E-03   3.500000E-04   1.000000E+00
   3.138000E-04   6.000000E-07   2.250000E-03   5.600000E-04   1.000000E+00
   3.230000E-04   6.000000E-07   3.340000E-04   5.000000E-05   1.000000E+00
   3.290000E-04   7.000000E-07   1.380000E-03   7.000000E-04   1.000000E+00
   3.295000E-04   7.000000E-07   2.480000E-03   1.200000E-03   1.000000E+00
# reference:
#   author: J.S.Desjardins,J.L.Rosen,W.W.Havens Jr,J.Rainwater
#   title: Slow Neutron Resonance Spectroscopy. II. Ag, Au, Ta
#   journal: Jour: Physical Review, Vol.120, p.2214 (1960)
