# header: 
#   title: Ta181(n,res) resonance parameter
#   source: EXFOR
#   user: Arjan Koning
#   date: 2025-10-25
#   format: YANDF-0.4
# exfor: 
#   author: Fluharty
#   year: 1956
#   subentry: 119460105
#   X4 reaction: 73-TA-181(N,EL),,WID/RED
#   X4 source: IAEA-NDS C5 file, database version 2023-08-08
#   X4 link: https://nds.iaea.org/EXFOR/119460105
# target: 
#   Z: 73
#   A: 181
#   nuclide: Ta181
# reaction: 
#   type: (n,res)
#   ENDF_MF: 402
#   ENDF_MT: 151
#   quantity: 
#     type: resonance parameter
#   datablock: 
#     columns: 5
#     entries: 23
##       E             dE             par           dpar       Normalization
##     [eV]           [eV]            []             []             []
   1.400000E-05   1.500000E-07   3.000000E-04   6.000000E-05   1.000000E+00
   2.050000E-05   2.000000E-07   2.400000E-04   6.000000E-05   1.000000E+00
   2.290000E-05   3.000000E-07   5.400000E-05   1.200000E-05   1.000000E+00
   2.430000E-05   3.000000E-07   1.560000E-03   2.400000E-04   1.000000E+00
   2.950000E-05   3.000000E-07   5.000000E-05   1.200000E-05   1.000000E+00
   3.530000E-05   6.000000E-07   2.320000E-03   5.400000E-04   1.000000E+00
   3.610000E-05   6.000000E-07   2.580000E-03   4.200000E-04   1.000000E+00
   3.930000E-05   6.000000E-07   8.400000E-03   1.800000E-03   1.000000E+00
   4.920000E-05   7.000000E-07   1.880000E-04   4.700000E-05   1.000000E+00
   5.590000E-05   8.000000E-07   2.700000E-05   1.300000E-05   1.000000E+00
   5.790000E-05   8.000000E-07   2.700000E-05   1.300000E-05   1.000000E+00
   6.320000E-05   9.000000E-07   9.100000E-04   2.300000E-04   1.000000E+00
   7.690000E-05   1.200000E-06   4.800000E-03   1.140000E-03   1.000000E+00
   8.270000E-05   1.400000E-06   1.210000E-03   4.400000E-04   1.000000E+00
   8.470000E-05   1.400000E-06   3.900000E-04   1.900000E-04   1.000000E+00
   8.940000E-05   1.900000E-06   4.700000E-04   2.300000E-04   1.000000E+00
   9.140000E-05   1.900000E-06   2.100000E-04   1.100000E-04   1.000000E+00
   9.880000E-05   2.000000E-06   1.430000E-02   2.800000E-04   1.000000E+00
   1.050000E-04   2.000000E-06   3.220000E-03   7.800000E-04   1.000000E+00
   1.140000E-04   2.000000E-06   5.600000E-03   1.690000E-03   1.000000E+00
   1.250000E-04   3.000000E-06   4.020000E-03   1.070000E-03   1.000000E+00
   1.360000E-04   3.000000E-06   5.840000E-03   1.460000E-03   1.000000E+00
   1.470000E-04   3.000000E-06   1.240000E-03   4.400000E-04   1.000000E+00
# reference:
#   author: R.G.FLUHARTY,F.B.SIMPSON,O.D.SIMPSON
#   title: NEUTRON RESONANCE MEASUREMENTS OF AG,TA,AND U238.
#   journal: Jour: Physical Review, Vol.103, p.1778 (1956)
