# header: 
#   title: Ni58(n,xg) DDX at  6.440000E+00 MeV
#   source: EXFOR
#   user: Arjan Koning
#   date: 2025-12-01
#   format: YANDF-0.4
# exfor: 
#   author: Sanami
#   year: 1998
#   subentry: 22354007
#   X4 reaction: 28-NI-58(N,A)26-FE-55,,DA/DE
#   X4 source: IAEA-NDS C5 file, database version 2023-08-08
#   X4 link: https://nds.iaea.org/EXFOR/22354007
# target: 
#   Z: 28
#   A: 58
#   nuclide: Ni58
# reaction: 
#   type: (n,xg)
#   ENDF_MF: 6
#   ENDF_MT: 107
#   E-incident [MeV]:  6.440000E+00
#   quantity: 
#     type: DDX
#   datablock: 
#     columns: 5
#     entries: 57
##     E-out         dE-out           xs             dxs       Normalization
##     [MeV]          [MeV]       [mb/MeV.sr]    [mb/MeV.sr]        []
   5.225000E+00   2.500000E-02   9.491500E-08   5.486500E-08   2.160000E+01   1.000000E+00
   5.275000E+00   2.500000E-02   2.692600E-07   1.539500E-07   2.160000E+01   1.000000E+00
   5.325000E+00   2.500000E-02   2.811700E-07   1.108800E-07   2.160000E+01   1.000000E+00
   5.375000E+00   2.500000E-02   3.171100E-07   1.493700E-07   2.160000E+01   1.000000E+00
   5.425000E+00   2.500000E-02   3.517700E-07   1.444500E-07   2.160000E+01   1.000000E+00
   5.475000E+00   2.500000E-02   1.496200E-07   2.539500E-07   2.160000E+01   1.000000E+00
   5.525000E+00   2.500000E-02   1.574200E-08   1.237800E-07   2.160000E+01   1.000000E+00
   5.575000E+00   2.500000E-02   9.430400E-08   2.444700E-07   2.160000E+01   1.000000E+00
   5.625000E+00   2.500000E-02   1.595000E-07   4.362000E-07   2.160000E+01   1.000000E+00
   5.750000E+00   1.000000E-01   5.637400E-08   2.105400E-07   2.160000E+01   1.000000E+00
   5.875000E+00   2.500000E-02   2.020300E-07   1.736600E-07   2.160000E+01   1.000000E+00
   5.925000E+00   2.500000E-02   2.535000E-07   1.242700E-07   2.160000E+01   1.000000E+00
   5.975000E+00   2.500000E-02   1.182300E-07   5.390100E-08   2.160000E+01   1.000000E+00
   6.025000E+00   2.500000E-02   2.503100E-07   1.639200E-07   2.160000E+01   1.000000E+00
   6.075000E+00   2.500000E-02   5.571600E-07   3.444200E-07   2.160000E+01   1.000000E+00
   6.150000E+00   5.000000E-02   1.982200E-07   1.462200E-07   2.160000E+01   1.000000E+00
   6.225000E+00   2.500000E-02   4.510000E-07   1.807500E-07   2.160000E+01   1.000000E+00
   6.275000E+00   2.500000E-02   5.972800E-07   1.890600E-07   2.160000E+01   1.000000E+00
   6.350000E+00   5.000000E-02   1.742600E-07   7.452300E-08   2.160000E+01   1.000000E+00
   6.425000E+00   2.500000E-02   1.957900E-07   1.580700E-07   2.160000E+01   1.000000E+00
   6.475000E+00   2.500000E-02   1.288400E-07   7.220900E-08   2.160000E+01   1.000000E+00
   6.525000E+00   2.500000E-02   4.543900E-07   1.531900E-07   2.160000E+01   1.000000E+00
   6.575000E+00   2.500000E-02   1.395500E-06   3.195500E-07   2.160000E+01   1.000000E+00
   6.625000E+00   2.500000E-02   1.071100E-06   2.530400E-07   2.160000E+01   1.000000E+00
   6.675000E+00   2.500000E-02   5.052400E-07   1.531300E-07   2.160000E+01   1.000000E+00
   6.725000E+00   2.500000E-02   5.181700E-07   1.837200E-07   2.160000E+01   1.000000E+00
   6.775000E+00   2.500000E-02   5.153100E-07   1.827800E-07   2.160000E+01   1.000000E+00
   6.825000E+00   2.500000E-02   6.922200E-07   2.502600E-07   2.160000E+01   1.000000E+00
   6.875000E+00   2.500000E-02   1.528800E-06   4.175000E-07   2.160000E+01   1.000000E+00
   6.925000E+00   2.500000E-02   1.451100E-06   3.641400E-07   2.160000E+01   1.000000E+00
   6.975000E+00   2.500000E-02   1.495300E-06   3.453300E-07   2.160000E+01   1.000000E+00
   7.025000E+00   2.500000E-02   1.789900E-06   3.677800E-07   2.160000E+01   1.000000E+00
   7.075000E+00   2.500000E-02   1.582500E-06   3.157100E-07   2.160000E+01   1.000000E+00
   7.125000E+00   2.500000E-02   1.692200E-06   3.249500E-07   2.160000E+01   1.000000E+00
   7.175000E+00   2.500000E-02   1.399000E-06   2.750200E-07   2.160000E+01   1.000000E+00
   7.225000E+00   2.500000E-02   1.221100E-06   3.028600E-07   2.160000E+01   1.000000E+00
   7.275000E+00   2.500000E-02   5.807600E-07   1.559800E-07   2.160000E+01   1.000000E+00
   7.375000E+00   7.500000E-02   9.427800E-08   4.221700E-08   2.160000E+01   1.000000E+00
   7.475000E+00   2.500000E-02   2.132900E-07   2.332900E-07   2.160000E+01   1.000000E+00
   7.525000E+00   2.500000E-02   7.112600E-07   2.987800E-07   2.160000E+01   1.000000E+00
   7.575000E+00   2.500000E-02   1.995000E-06   3.793300E-07   2.160000E+01   1.000000E+00
   7.625000E+00   2.500000E-02   2.491900E-06   3.983700E-07   2.160000E+01   1.000000E+00
   7.675000E+00   2.500000E-02   4.076400E-06   5.843800E-07   2.160000E+01   1.000000E+00
   7.725000E+00   2.500000E-02   3.976400E-06   6.687700E-07   2.160000E+01   1.000000E+00
   7.775000E+00   2.500000E-02   2.842700E-06   5.212700E-07   2.160000E+01   1.000000E+00
   7.825000E+00   2.500000E-02   1.667200E-06   5.864800E-07   2.160000E+01   1.000000E+00
   7.875000E+00   2.500000E-02   1.303700E-06   3.737800E-07   2.160000E+01   1.000000E+00
   7.925000E+00   2.500000E-02   1.294600E-06   3.017600E-07   2.160000E+01   1.000000E+00
   7.975000E+00   2.500000E-02   1.792900E-06   3.434700E-07   2.160000E+01   1.000000E+00
   8.025000E+00   2.500000E-02   2.421500E-06   4.032400E-07   2.160000E+01   1.000000E+00
   8.075000E+00   2.500050E-02   3.258800E-06   4.776100E-07   2.160000E+01   1.000000E+00
   8.125000E+00   2.499950E-02   3.439400E-06   4.825800E-07   2.160000E+01   1.000000E+00
   8.175000E+00   2.500000E-02   2.003200E-06   5.092000E-07   2.160000E+01   1.000000E+00
   8.225000E+00   2.500000E-02   1.137300E-06   3.499800E-07   2.160000E+01   1.000000E+00
   8.300000E+00   5.000050E-02   2.581400E-07   1.058600E-07   2.160000E+01   1.000000E+00
   8.375000E+00   2.500000E-02   5.297200E-07   2.252800E-07   2.160000E+01   1.000000E+00
   8.425000E+00   2.500000E-02   8.937500E-07   4.879900E-07   2.160000E+01   1.000000E+00
# reference:
#   author: T.Sanami,M.Baba,T.Kawano,S.Matsuyama,T.Kiyosumi, Y.Nauchi,K.Saito,N.Hirakawa,N.Ito
#   title: High resolution measurements of double-differential  (n,alpha) cross-sections of Ni-58 and Ni-nat  between 4.2 and 6.5 MeV neutrons
#   journal: Jour: Jour. of Nuclear Science and Technology, Vol.35, p.851 (1998)
