# header: 
#   title: Ni58(n,xg) DDX at  5.840000E+00 MeV
#   source: EXFOR
#   user: Arjan Koning
#   date: 2025-10-25
#   format: YANDF-0.4
# exfor: 
#   author: Sanami
#   year: 1998
#   subentry: 22354007
#   X4 reaction: 28-NI-58(N,A)26-FE-55,,DA/DE
#   X4 source: IAEA-NDS C5 file, database version 2023-08-08
#   X4 link: https://nds.iaea.org/EXFOR/22354007
# target: 
#   Z: 28
#   A: 58
#   nuclide: Ni58
# reaction: 
#   type: (n,xg)
#   ENDF_MF: 6
#   ENDF_MT: 107
#   E-incident [MeV]:  5.840000E+00
#   quantity: 
#     type: DDX
#   datablock: 
#     columns: 5
#     entries: 55
##     E-out         dE-out           xs             dxs       Normalization
##     [MeV]          [MeV]       [mb/MeV.sr]    [mb/MeV.sr]        []
   5.125000E+00   2.500000E-02   1.118000E-07   2.089800E-07   2.160000E+01   1.000000E+00
   5.175000E+00   2.500000E-02   1.322100E-07   1.252800E-07   2.160000E+01   1.000000E+00
   5.225000E+00   2.500000E-02   3.117500E-07   1.975100E-07   2.160000E+01   1.000000E+00
   5.275000E+00   2.500000E-02   2.535100E-07   2.373600E-07   2.160000E+01   1.000000E+00
   5.325000E+00   2.500000E-02   3.684100E-07   2.156700E-07   2.160000E+01   1.000000E+00
   5.375000E+00   2.500000E-02   4.905200E-07   2.010000E-07   2.160000E+01   1.000000E+00
   5.425000E+00   2.500000E-02   5.098300E-07   1.962900E-07   2.160000E+01   1.000000E+00
   5.475000E+00   2.500000E-02   4.448200E-07   1.643600E-07   2.160000E+01   1.000000E+00
   5.525000E+00   2.500000E-02   3.242100E-07   1.328700E-07   2.160000E+01   1.000000E+00
   5.575000E+00   2.500000E-02   1.331400E-07   1.688700E-07   2.160000E+01   1.000000E+00
   5.625000E+00   2.500000E-02   1.859100E-08   8.658700E-08   2.160000E+01   1.000000E+00
   5.675000E+00   2.500000E-02   1.681500E-07   1.576300E-07   2.160000E+01   1.000000E+00
   5.725000E+00   2.500000E-02   3.742900E-07   2.175500E-07   2.160000E+01   1.000000E+00
   5.775000E+00   2.500000E-02   1.601500E-07   1.097200E-07   2.160000E+01   1.000000E+00
   5.825000E+00   2.500000E-02   3.930800E-08   3.653500E-08   2.160000E+01   1.000000E+00
   5.875000E+00   2.500000E-02   1.993200E-07   1.055600E-07   2.160000E+01   1.000000E+00
   5.925000E+00   2.500000E-02   3.853100E-07   1.631900E-07   2.160000E+01   1.000000E+00
   5.975000E+00   2.500000E-02   1.914400E-07   9.057200E-08   2.160000E+01   1.000000E+00
   6.025000E+00   2.500000E-02   1.682800E-08   1.683300E-08   2.160000E+01   1.000000E+00
   6.075000E+00   2.500000E-02   2.945600E-07   2.241600E-07   2.160000E+01   1.000000E+00
   6.125000E+00   2.500000E-02   3.596100E-07   1.815300E-07   2.160000E+01   1.000000E+00
   6.175000E+00   2.500000E-02   5.925700E-07   2.668000E-07   2.160000E+01   1.000000E+00
   6.225000E+00   2.500000E-02   6.061500E-07   2.534100E-07   2.160000E+01   1.000000E+00
   6.275000E+00   2.500000E-02   4.643300E-07   2.477700E-07   2.160000E+01   1.000000E+00
   6.325000E+00   2.500000E-02   4.357600E-07   2.720500E-07   2.160000E+01   1.000000E+00
   6.375000E+00   2.500000E-02   3.851700E-07   3.559100E-07   2.160000E+01   1.000000E+00
   6.425000E+00   2.500000E-02   7.247900E-07   2.725900E-07   2.160000E+01   1.000000E+00
   6.475000E+00   2.500000E-02   6.534700E-07   1.951900E-07   2.160000E+01   1.000000E+00
   6.525000E+00   2.500000E-02   4.995000E-07   1.889700E-07   2.160000E+01   1.000000E+00
   6.575000E+00   2.500000E-02   1.818300E-07   3.701300E-07   2.160000E+01   1.000000E+00
   6.625000E+00   2.500000E-02   5.000800E-08   1.974500E-07   2.160000E+01   1.000000E+00
   6.675000E+00   2.500000E-02   8.477500E-08   7.416700E-08   2.160000E+01   1.000000E+00
   6.725000E+00   2.500000E-02   5.689100E-08   3.426000E-08   2.160000E+01   1.000000E+00
   6.775000E+00   2.500000E-02   2.938100E-07   1.536300E-07   2.160000E+01   1.000000E+00
   6.825000E+00   2.500000E-02   7.874600E-07   2.427900E-07   2.160000E+01   1.000000E+00
   6.875000E+00   2.500000E-02   9.024700E-07   3.067100E-07   2.160000E+01   1.000000E+00
   6.925000E+00   2.500000E-02   1.039500E-06   3.954100E-07   2.160000E+01   1.000000E+00
   6.975000E+00   2.500000E-02   1.554600E-06   4.455500E-07   2.160000E+01   1.000000E+00
   7.025000E+00   2.500000E-02   1.606700E-06   4.217300E-07   2.160000E+01   1.000000E+00
   7.075000E+00   2.500000E-02   2.393400E-06   6.157300E-07   2.160000E+01   1.000000E+00
   7.125000E+00   2.500000E-02   2.286400E-06   6.236300E-07   2.160000E+01   1.000000E+00
   7.175000E+00   2.500000E-02   1.875000E-06   4.884600E-07   2.160000E+01   1.000000E+00
   7.225000E+00   2.500000E-02   9.472900E-07   2.820500E-07   2.160000E+01   1.000000E+00
   7.275000E+00   2.500000E-02   1.054300E-06   3.559100E-07   2.160000E+01   1.000000E+00
   7.325000E+00   2.500000E-02   1.163800E-06   3.039400E-07   2.160000E+01   1.000000E+00
   7.375000E+00   2.500000E-02   1.571400E-06   3.514300E-07   2.160000E+01   1.000000E+00
   7.425000E+00   2.500000E-02   1.905900E-06   3.801400E-07   2.160000E+01   1.000000E+00
   7.475000E+00   2.500000E-02   2.536000E-06   4.267100E-07   2.160000E+01   1.000000E+00
   7.525000E+00   2.500000E-02   2.770700E-06   4.300700E-07   2.160000E+01   1.000000E+00
   7.575000E+00   2.500000E-02   2.341300E-06   4.035400E-07   2.160000E+01   1.000000E+00
   7.625000E+00   2.500000E-02   1.518100E-06   3.133000E-07   2.160000E+01   1.000000E+00
   7.675000E+00   2.500000E-02   1.001000E-06   2.907700E-07   2.160000E+01   1.000000E+00
   7.725000E+00   2.500000E-02   8.588600E-07   2.997100E-07   2.160000E+01   1.000000E+00
   7.775000E+00   2.500000E-02   1.004600E-06   3.391500E-07   2.160000E+01   1.000000E+00
   7.825000E+00   2.500000E-02   2.410700E-06   5.674000E-07   2.160000E+01   1.000000E+00
# reference:
#   author: T.Sanami,M.Baba,T.Kawano,S.Matsuyama,T.Kiyosumi, Y.Nauchi,K.Saito,N.Hirakawa,N.Ito
#   title: High resolution measurements of double-differential  (n,alpha) cross-sections of Ni-58 and Ni-nat  between 4.2 and 6.5 MeV neutrons
#   journal: Jour: Jour. of Nuclear Science and Technology, Vol.35, p.851 (1998)
