# header: 
#   title: Ni58(n,xg) DDX at  6.510000E+00 MeV
#   source: EXFOR
#   user: Arjan Koning
#   date: 2025-12-18
#   format: YANDF-0.4
# exfor: 
#   author: Sanami
#   year: 1998
#   subentry: 22354007
#   X4 reaction: 28-NI-58(N,A)26-FE-55,,DA/DE
#   X4 source: IAEA-NDS C5 file, database version 2023-08-08
#   X4 link: https://nds.iaea.org/EXFOR/22354007
# target: 
#   Z: 28
#   A: 58
#   nuclide: Ni58
# reaction: 
#   type: (n,xg)
#   ENDF_MF: 6
#   ENDF_MT: 107
#   E-incident [MeV]:  6.510000E+00
#   quantity: 
#     type: DDX
#   datablock: 
#     columns: 5
#     entries: 74
##     E-out         dE-out           xs             dxs       Normalization
##     [MeV]          [MeV]       [mb/MeV.sr]    [mb/MeV.sr]        []
   4.475000E+00   2.500000E-02   7.069900E-08   3.349000E-07   2.160000E+01   1.000000E+00
   4.525000E+00   2.500000E-02   4.851400E-07   3.278600E-07   2.160000E+01   1.000000E+00
   4.575000E+00   2.500000E-02   6.086300E-07   2.534300E-07   2.160000E+01   1.000000E+00
   4.625000E+00   2.500000E-02   2.707200E-07   1.419900E-07   2.160000E+01   1.000000E+00
   4.725000E+00   7.500000E-02   3.948200E-08   3.949300E-08   2.160000E+01   1.000000E+00
   4.825000E+00   2.500000E-02   2.878400E-08   2.879200E-08   2.160000E+01   1.000000E+00
   4.875000E+00   2.500000E-02   1.204700E-07   1.034400E-07   2.160000E+01   1.000000E+00
   4.975000E+00   7.500000E-02   6.636700E-08   6.638500E-08   2.160000E+01   1.000000E+00
   5.075000E+00   2.500000E-02   6.857200E-09   3.459700E-07   2.160000E+01   1.000000E+00
   5.125000E+00   2.500000E-02   6.301900E-08   1.990900E-07   2.160000E+01   1.000000E+00
   5.175000E+00   2.500000E-02   3.260100E-08   3.255900E-08   2.160000E+01   1.000000E+00
   5.225000E+00   2.500000E-02   1.560200E-07   1.393700E-07   2.160000E+01   1.000000E+00
   5.275000E+00   2.500000E-02   2.094900E-07   2.688100E-07   2.160000E+01   1.000000E+00
   5.350000E+00   5.000000E-02   6.800700E-08   1.415400E-07   2.160000E+01   1.000000E+00
   5.425000E+00   2.500000E-02   1.006500E-07   1.006800E-07   2.160000E+01   1.000000E+00
   5.475000E+00   2.500000E-02   1.419400E-07   2.834400E-07   2.160000E+01   1.000000E+00
   5.525000E+00   2.500000E-02   3.160400E-07   3.221800E-07   2.160000E+01   1.000000E+00
   5.575000E+00   2.500000E-02   6.969600E-07   3.237700E-07   2.160000E+01   1.000000E+00
   5.625000E+00   2.500000E-02   4.604800E-07   1.923500E-07   2.160000E+01   1.000000E+00
   5.675000E+00   2.500000E-02   8.713700E-08   6.182400E-08   2.160000E+01   1.000000E+00
   5.725000E+00   2.500000E-02   1.214100E-07   1.325200E-07   2.160000E+01   1.000000E+00
   5.825000E+00   7.500000E-02   6.669499E-08   7.279700E-08   2.160000E+01   1.000000E+00
   5.925000E+00   2.500000E-02   2.227000E-07   1.867300E-07   2.160000E+01   1.000000E+00
   5.975000E+00   2.500000E-02   2.952100E-07   1.625800E-07   2.160000E+01   1.000000E+00
   6.025000E+00   2.500000E-02   2.525100E-07   1.672300E-07   2.160000E+01   1.000000E+00
   6.075000E+00   2.500000E-02   8.738600E-08   7.366900E-08   2.160000E+01   1.000000E+00
   6.125000E+00   2.500000E-02   1.366100E-07   4.998300E-07   2.160000E+01   1.000000E+00
   6.175000E+00   2.500000E-02   5.917000E-07   4.233400E-07   2.160000E+01   1.000000E+00
   6.225000E+00   2.500000E-02   5.767000E-07   2.938500E-07   2.160000E+01   1.000000E+00
   6.275000E+00   2.500000E-02   2.959000E-07   8.456900E-07   2.160000E+01   1.000000E+00
   6.325000E+00   2.500000E-02   6.681400E-08   3.953400E-07   2.160000E+01   1.000000E+00
   6.375000E+00   2.500000E-02   6.589000E-07   3.911600E-07   2.160000E+01   1.000000E+00
   6.425000E+00   2.500000E-02   5.328100E-07   2.176600E-07   2.160000E+01   1.000000E+00
   6.475000E+00   2.500000E-02   4.486800E-07   2.607400E-07   2.160000E+01   1.000000E+00
   6.525000E+00   2.500000E-02   3.517800E-07   1.804300E-07   2.160000E+01   1.000000E+00
   6.575000E+00   2.500000E-02   5.636900E-07   2.720600E-07   2.160000E+01   1.000000E+00
   6.625000E+00   2.500000E-02   2.237800E-07   1.247900E-07   2.160000E+01   1.000000E+00
   6.675000E+00   2.500000E-02   2.664800E-07   5.053200E-07   2.160000E+01   1.000000E+00
   6.725000E+00   2.500000E-02   1.001900E-06   4.066600E-07   2.160000E+01   1.000000E+00
   6.775000E+00   2.500000E-02   1.003900E-06   3.114700E-07   2.160000E+01   1.000000E+00
   6.825000E+00   2.500000E-02   9.405200E-07   3.832600E-07   2.160000E+01   1.000000E+00
   6.875000E+00   2.500000E-02   1.205300E-06   4.391100E-07   2.160000E+01   1.000000E+00
   6.925000E+00   2.500000E-02   1.062200E-06   4.101600E-07   2.160000E+01   1.000000E+00
   6.975000E+00   2.500000E-02   9.175500E-07   4.226400E-07   2.160000E+01   1.000000E+00
   7.025000E+00   2.500000E-02   1.020900E-06   4.334000E-07   2.160000E+01   1.000000E+00
   7.075000E+00   2.500000E-02   6.749100E-07   9.858200E-07   2.160000E+01   1.000000E+00
   7.125000E+00   2.500000E-02   1.720100E-06   6.748400E-07   2.160000E+01   1.000000E+00
   7.175000E+00   2.500000E-02   1.794800E-06   5.972400E-07   2.160000E+01   1.000000E+00
   7.225000E+00   2.500000E-02   1.750300E-06   8.276500E-07   2.160000E+01   1.000000E+00
   7.275000E+00   2.500000E-02   2.385600E-06   6.138100E-07   2.160000E+01   1.000000E+00
   7.325000E+00   2.500000E-02   2.082400E-06   4.848700E-07   2.160000E+01   1.000000E+00
   7.375000E+00   2.500000E-02   9.120500E-07   5.607800E-07   2.160000E+01   1.000000E+00
   7.425000E+00   2.500000E-02   1.525600E-07   2.205900E-07   2.160000E+01   1.000000E+00
   7.475000E+00   2.500000E-02   3.845100E-07   2.721900E-07   2.160000E+01   1.000000E+00
   7.525000E+00   2.500000E-02   7.350500E-07   3.335700E-07   2.160000E+01   1.000000E+00
   7.575000E+00   2.500000E-02   5.898200E-07   2.681400E-07   2.160000E+01   1.000000E+00
   7.625000E+00   2.500000E-02   7.414300E-07   3.908700E-07   2.160000E+01   1.000000E+00
   7.675000E+00   2.500000E-02   4.679800E-07   2.319300E-07   2.160000E+01   1.000000E+00
   7.725000E+00   2.500000E-02   2.502700E-07   9.330000E-07   2.160000E+01   1.000000E+00
   7.775000E+00   2.500000E-02   3.519100E-06   1.001800E-06   2.160000E+01   1.000000E+00
   7.825000E+00   2.500000E-02   4.187200E-06   7.557800E-07   2.160000E+01   1.000000E+00
   7.875000E+00   2.500000E-02   6.664300E-06   1.115700E-06   2.160000E+01   1.000000E+00
   7.925000E+00   2.500000E-02   4.414600E-06   7.694800E-07   2.160000E+01   1.000000E+00
   7.975000E+00   2.500000E-02   2.277500E-06   6.675700E-07   2.160000E+01   1.000000E+00
   8.025000E+00   2.500000E-02   1.479800E-06   4.628300E-07   2.160000E+01   1.000000E+00
   8.075000E+00   2.500050E-02   1.022200E-06   3.413400E-07   2.160000E+01   1.000000E+00
   8.125000E+00   2.499950E-02   8.836701E-07   3.406800E-07   2.160000E+01   1.000000E+00
   8.175000E+00   2.500000E-02   2.110500E-06   5.491600E-07   2.160000E+01   1.000000E+00
   8.225000E+00   2.500000E-02   3.994100E-06   7.249400E-07   2.160000E+01   1.000000E+00
   8.275000E+00   2.500000E-02   4.153100E-06   7.031300E-07   2.160000E+01   1.000000E+00
   8.325000E+00   2.500050E-02   2.818300E-06   6.038500E-07   2.160000E+01   1.000000E+00
   8.375000E+00   2.500000E-02   1.410300E-06   4.115400E-07   2.160000E+01   1.000000E+00
   8.425000E+00   2.500000E-02   1.308700E-06   4.849200E-07   2.160000E+01   1.000000E+00
   8.475000E+00   2.500000E-02   1.010100E-06   3.712300E-07   2.160000E+01   1.000000E+00
# reference:
#   author: T.Sanami,M.Baba,T.Kawano,S.Matsuyama,T.Kiyosumi, Y.Nauchi,K.Saito,N.Hirakawa,N.Ito
#   title: High resolution measurements of double-differential  (n,alpha) cross-sections of Ni-58 and Ni-nat  between 4.2 and 6.5 MeV neutrons
#   journal: Jour: Jour. of Nuclear Science and Technology, Vol.35, p.851 (1998)
