# header: 
#   title: Th232(n,res) resonance parameter
#   source: EXFOR
#   user: Arjan Koning
#   date: 2025-12-18
#   format: YANDF-0.4
# exfor: 
#   author: Palevsky
#   year: 1964
#   subentry: 122700053
#   X4 reaction: 90-TH-232(N,G),,WID
#   X4 source: IAEA-NDS C5 file, database version 2023-08-08
#   X4 link: https://nds.iaea.org/EXFOR/122700053
# target: 
#   Z: 90
#   A: 232
#   nuclide: Th232
# reaction: 
#   type: (n,res)
#   ENDF_MF: 402
#   ENDF_MT: 151
#   quantity: 
#     type: resonance parameter
#   datablock: 
#     columns: 5
#     entries: 23
##       E             dE             par           dpar       Normalization
##     [eV]           [eV]            []             []             []
   2.169000E-05   0.000000E+00   2.460000E-02   1.200000E-03   1.000000E+00
   2.335000E-05   0.000000E+00   2.990000E-02   1.600000E-03   1.000000E+00
   5.934000E-05   0.000000E+00   2.320000E-02   2.000000E-03   1.000000E+00
   6.894999E-05   0.000000E+00   2.120000E-02   1.000000E-03   1.000000E+00
   1.126000E-04   0.000000E+00   2.010000E-02   9.000000E-04   1.000000E+00
   1.205000E-04   0.000000E+00   2.070000E-02   7.000000E-04   1.000000E+00
   1.288000E-04   0.000000E+00   2.140000E-02   3.400000E-03   1.000000E+00
   1.700000E-04   0.000000E+00   2.220000E-02   9.000000E-04   1.000000E+00
   1.922000E-04   0.000000E+00   1.960000E-02   1.400000E-03   1.000000E+00
   1.990000E-04   0.000000E+00   1.990000E-02   4.500000E-03   1.000000E+00
   2.207000E-04   0.000000E+00   2.030000E-02   1.000000E-03   1.000000E+00
   2.511000E-04   0.000000E+00   2.110000E-02   1.200000E-03   1.000000E+00
   2.625000E-04   0.000000E+00   1.790000E-02   1.400000E-03   1.000000E+00
   2.851000E-04   0.000000E+00   2.180000E-02   1.400000E-03   1.000000E+00
   3.050000E-04   0.000000E+00   2.420000E-02   1.700000E-03   1.000000E+00
   3.288000E-04   0.000000E+00   2.290000E-02   1.000000E-03   1.000000E+00
   3.412000E-04   0.000000E+00   2.050000E-02   1.000000E-03   1.000000E+00
   4.628000E-04   0.000000E+00   2.150000E-02   1.100000E-03   1.000000E+00
   4.891000E-04   0.000000E+00   1.920000E-02   1.200000E-03   1.000000E+00
   5.698000E-04   0.000000E+00   1.930000E-02   2.200000E-03   1.000000E+00
   7.411000E-04   0.000000E+00   2.160000E-02   1.400000E-03   1.000000E+00
   8.041000E-04   0.000000E+00   2.050000E-02   2.000000E-03   1.000000E+00
   8.424000E-04   0.000000E+00   2.320000E-02   4.900000E-03   1.000000E+00
# reference:
#   author: H.PALEVSKY,R.E.CHRIEN,E.HADDAD,W.M.LOPEZ
#   title: SELF-INDICATION ANALYSIS OF BREIT-WIGNER LEVELS AND  SOME RESULTS USING THIS METHOD FOR THE LOW-ENERGY  RESONANCES IN THORIUM.
#   journal: Jour: Bulletin of the American Physical Society Ser.II, Vol.9, p.20(BC9)
