# header: 
#   title: Au197(n,g)Au198 cross section
#   source: EXFOR
#   user: Arjan Koning
#   date: 2025-08-01
#   format: YANDF-0.2
# exfor: 
#   author: Yamamoto
#   year: 1990
#   subentry: 22196003
#   X4 reaction: 79-AU-197(N,G)79-AU-198,,SIG
#   X4 source: IAEA-NDS C5 file, database version 2023-08-08
#   X4 link: https://nds.iaea.org/EXFOR/22196003
# target: 
#   Z: 79
#   A: 197
#   nuclide: Au197
# reaction: 
#   type: (n,g)
#   ENDF_MF: 3
#   ENDF_MT: 102
#   residual: 
#     Z: 79
#     A: 198
#     nuclide: Au198
#   quantity: 
#     type: cross section
#   datablock: 
#     columns: 5
#     entries: 37
##       E             dE             xs             dxs       Normalization
##     [MeV]          [MeV]          [mb]           [mb]            []
   1.338000E-08   0.000000E+00   1.356000E+05   4.113000E+01   1.000000E+00
   1.503000E-08   0.000000E+00   1.336000E+05   3.788000E+01   1.000000E+00
   1.686000E-08   0.000000E+00   1.213000E+05   3.554000E+01   1.000000E+00
   1.893000E-08   0.000000E+00   1.167000E+05   3.313000E+01   1.000000E+00
   2.126000E-08   0.000000E+00   1.090000E+05   3.159000E+01   1.000000E+00
   2.387000E-08   0.000000E+00   1.022000E+05   3.043000E+01   1.000000E+00
   2.679000E-08   0.000000E+00   9.390000E+04   2.951000E+01   1.000000E+00
   3.009000E-08   0.000000E+00   8.959000E+04   2.881000E+01   1.000000E+00
   3.378000E-08   0.000000E+00   8.373000E+04   2.826000E+01   1.000000E+00
   3.791000E-08   0.000000E+00   8.148000E+04   2.782000E+01   1.000000E+00
   4.257000E-08   0.000000E+00   7.728000E+04   2.752000E+01   1.000000E+00
   4.784000E-08   0.000000E+00   7.206000E+04   2.739000E+01   1.000000E+00
   5.376000E-08   0.000000E+00   6.800000E+04   2.729000E+01   1.000000E+00
   6.039000E-08   0.000000E+00   6.418000E+04   2.725000E+01   1.000000E+00
   6.779000E-08   0.000000E+00   6.059000E+04   2.737000E+01   1.000000E+00
   7.610000E-08   0.000000E+00   5.819000E+04   2.747000E+01   1.000000E+00
   8.548000E-08   0.000000E+00   5.495000E+04   2.764000E+01   1.000000E+00
   9.605000E-08   0.000000E+00   5.261000E+04   2.809000E+01   1.000000E+00
   1.079000E-07   0.000000E+00   5.087000E+04   2.866000E+01   1.000000E+00
   1.213000E-07   0.000000E+00   4.830000E+04   2.975000E+01   1.000000E+00
   1.361000E-07   0.000000E+00   4.656000E+04   3.130000E+01   1.000000E+00
   1.528000E-07   0.000000E+00   4.215000E+04   3.366000E+01   1.000000E+00
   1.715000E-07   0.000000E+00   4.194000E+04   3.578000E+01   1.000000E+00
   1.928000E-07   0.000000E+00   3.847000E+04   3.925000E+01   1.000000E+00
   2.170000E-07   0.000000E+00   3.932000E+04   4.245000E+01   1.000000E+00
   2.439000E-07   0.000000E+00   3.523000E+04   4.633000E+01   1.000000E+00
   2.743000E-07   0.000000E+00   3.248000E+04   4.970000E+01   1.000000E+00
   3.084000E-07   0.000000E+00   3.277000E+04   4.992000E+01   1.000000E+00
   3.467000E-07   0.000000E+00   3.006000E+04   5.358000E+01   1.000000E+00
   3.905000E-07   0.000000E+00   3.092000E+04   5.654000E+01   1.000000E+00
   4.393000E-07   0.000000E+00   2.939000E+04   6.275000E+01   1.000000E+00
   4.932000E-07   0.000000E+00   2.740000E+04   7.222000E+01   1.000000E+00
   5.541000E-07   0.000000E+00   2.892000E+04   6.870000E+01   1.000000E+00
   6.228000E-07   0.000000E+00   2.530000E+04   7.821001E+01   1.000000E+00
   6.998999E-07   0.000000E+00   2.496000E+04   6.817001E+01   1.000000E+00
   7.862000E-07   0.000000E+00   2.308000E+04   4.728000E+01   1.000000E+00
   8.859000E-07   0.000000E+00   2.472000E+04   3.685000E+01   1.000000E+00
# reference:
#   author: S.YAMAMOTO,K.KOBAYASHI,Y.FUJITA
#   title: -ABSOLUTE MEASUREMENT OF NEUTRON CAPTURE CROSS SECTIONS  WITH BGO SCINTILLATORS.
#   journal: Prog: Japanese report to NEANDC, No.155, p.59 (1990)
