# header: 
#   title: Au197(n,g)Au198 cross section
#   source: EXFOR
#   user: Arjan Koning
#   date: 2025-10-25
#   format: YANDF-0.4
# exfor: 
#   author: Yamamoto
#   year: 1996
#   subentry: 22370004
#   X4 reaction: 79-AU-197(N,G)79-AU-198,,SIG
#   X4 source: IAEA-NDS C5 file, database version 2023-08-08
#   X4 link: https://nds.iaea.org/EXFOR/22370004
# target: 
#   Z: 79
#   A: 197
#   nuclide: Au197
# reaction: 
#   type: (n,g)
#   ENDF_MF: 3
#   ENDF_MT: 102
#   residual: 
#     Z: 79
#     A: 198
#     nuclide: Au198
#   quantity: 
#     type: cross section
#   datablock: 
#     columns: 5
#     entries: 54
##       E             dE             xs             dxs       Normalization
##     [MeV]          [MeV]          [mb]           [mb]            []
   1.338000E-08   0.000000E+00   1.334600E+05   3.316800E+03   1.000000E+00
   1.503000E-08   0.000000E+00   1.253900E+05   3.100900E+03   1.000000E+00
   1.686000E-08   0.000000E+00   1.180500E+05   2.906800E+03   1.000000E+00
   1.893000E-08   0.000000E+00   1.121200E+05   2.751400E+03   1.000000E+00
   2.126000E-08   0.000000E+00   1.057100E+05   2.588200E+03   1.000000E+00
   2.387000E-08   0.000000E+00   1.005500E+05   2.457400E+03   1.000000E+00
   2.679000E-08   0.000000E+00   9.474600E+04   2.312400E+03   1.000000E+00
   3.009000E-08   0.000000E+00   8.948800E+04   2.181600E+03   1.000000E+00
   3.378000E-08   0.000000E+00   8.439900E+04   2.056100E+03   1.000000E+00
   3.791000E-08   0.000000E+00   7.989200E+04   1.945000E+03   1.000000E+00
   4.257000E-08   0.000000E+00   7.639800E+04   1.858900E+03   1.000000E+00
   4.784000E-08   0.000000E+00   7.240900E+04   1.761300E+03   1.000000E+00
   5.376000E-08   0.000000E+00   6.874700E+04   1.671900E+03   1.000000E+00
   6.039000E-08   0.000000E+00   6.475900E+04   1.575000E+03   1.000000E+00
   6.779000E-08   0.000000E+00   6.153200E+04   1.496700E+03   1.000000E+00
   7.610000E-08   0.000000E+00   5.833000E+04   1.419200E+03   1.000000E+00
   8.548000E-08   0.000000E+00   5.523000E+04   1.344300E+03   1.000000E+00
   9.605000E-08   0.000000E+00   5.247400E+04   1.278200E+03   1.000000E+00
   1.079000E-07   0.000000E+00   4.963800E+04   1.210400E+03   1.000000E+00
   1.213000E-07   0.000000E+00   4.713900E+04   1.151600E+03   1.000000E+00
   1.361000E-07   0.000000E+00   4.463100E+04   1.093000E+03   1.000000E+00
   1.528000E-07   0.000000E+00   4.267900E+04   1.048600E+03   1.000000E+00
   1.715000E-07   0.000000E+00   4.046600E+04   9.990600E+02   1.000000E+00
   1.928000E-07   0.000000E+00   3.882500E+04   9.636500E+02   1.000000E+00
   2.170000E-07   0.000000E+00   3.646000E+04   9.118500E+02   1.000000E+00
   2.439000E-07   0.000000E+00   3.516000E+04   8.847500E+02   1.000000E+00
   2.743000E-07   0.000000E+00   3.338200E+04   8.440300E+02   1.000000E+00
   3.084000E-07   0.000000E+00   3.234700E+04   8.212900E+02   1.000000E+00
   3.467000E-07   0.000000E+00   3.062100E+04   7.802500E+02   1.000000E+00
   3.905000E-07   0.000000E+00   2.994300E+04   7.629900E+02   1.000000E+00
   4.393000E-07   0.000000E+00   2.816100E+04   7.221700E+02   1.000000E+00
   4.932000E-07   0.000000E+00   2.718100E+04   6.980900E+02   1.000000E+00
   5.541000E-07   0.000000E+00   2.650000E+04   6.820800E+02   1.000000E+00
   6.228000E-07   0.000000E+00   2.592400E+04   6.681300E+02   1.000000E+00
   6.998999E-07   0.000000E+00   2.514300E+04   6.495500E+02   1.000000E+00
   7.862000E-07   0.000000E+00   2.491200E+04   6.439100E+02   1.000000E+00
   8.859000E-07   0.000000E+00   2.431900E+04   6.264900E+02   1.000000E+00
   1.001000E-06   0.000000E+00   2.399900E+04   6.187800E+02   1.000000E+00
   1.130000E-06   0.000000E+00   2.437800E+04   6.275100E+02   1.000000E+00
   1.274000E-06   0.000000E+00   2.521100E+04   6.476200E+02   1.000000E+00
   1.438000E-06   0.000000E+00   2.547200E+04   6.512200E+02   1.000000E+00
   1.628000E-06   0.000000E+00   2.700400E+04   6.886200E+02   1.000000E+00
   1.836000E-06   0.000000E+00   2.891200E+04   7.350700E+02   1.000000E+00
   2.073000E-06   0.000000E+00   3.272900E+04   8.246000E+02   1.000000E+00
   2.344000E-06   0.000000E+00   3.811900E+04   9.560100E+02   1.000000E+00
   2.653000E-06   0.000000E+00   4.591700E+04   1.142600E+03   1.000000E+00
   3.004000E-06   0.000000E+00   6.153900E+04   1.523100E+03   1.000000E+00
   3.403000E-06   0.000000E+00   9.547300E+04   2.345700E+03   1.000000E+00
   3.853000E-06   0.000000E+00   1.935800E+05   4.733400E+03   1.000000E+00
   4.359000E-06   0.000000E+00   7.433000E+05   1.810400E+04   1.000000E+00
   5.548000E-06   0.000000E+00   4.407200E+05   1.074700E+04   1.000000E+00
   6.301000E-06   0.000000E+00   8.238400E+04   2.027100E+03   1.000000E+00
   7.130000E-06   0.000000E+00   3.064200E+04   7.754500E+02   1.000000E+00
   8.038999E-06   0.000000E+00   1.532300E+04   4.052000E+02   1.000000E+00
# reference:
#   author: S.YAMAMOTO,K.KOBAYASHI,Y.FUJITA
#   title: APPLICATION OF 'BGO' SCINTILLATORS TO ABSOLUTE  MEASUREMENTS OF NEUTRON CAPTURE CROSS-SECTIONS  BETWEEN 0.01 EV AND 10 EV
#   journal: Jour: Jour. of Nuclear Science and Technology, Vol.33, Issue.11, p.815 (
