# header: 
#   title: In113(n,res) resonance parameter
#   source: EXFOR
#   user: Arjan Koning
#   date: 2025-12-18
#   format: YANDF-0.4
# exfor: 
#   author: Hacken
#   year: 1974
#   subentry: 104570022
#   X4 reaction: 49-IN-113(N,EL),,WID/RED,,G
#   X4 source: IAEA-NDS C5 file, database version 2023-08-08
#   X4 link: https://nds.iaea.org/EXFOR/104570022
# target: 
#   Z: 49
#   A: 113
#   nuclide: In113
# reaction: 
#   type: (n,res)
#   ENDF_MF: 402
#   ENDF_MT: 151
#   quantity: 
#     type: resonance parameter
#   datablock: 
#     columns: 5
#     entries: 49
##       E             dE             par           dpar       Normalization
##     [eV]           [eV]            []             []             []
   4.700000E-06   3.000000E-08   3.200000E-05   5.000000E-06   1.000000E+00
   1.465000E-05   4.000000E-08   7.500000E-04   2.500000E-04   1.000000E+00
   2.155000E-05   1.000000E-08   3.000000E-04   2.000000E-05   1.000000E+00
   2.499000E-05   1.000000E-08   9.300000E-04   2.000000E-05   1.000000E+00
   2.678000E-05   2.000000E-08   2.000000E-05   5.000000E-06   1.000000E+00
   3.224000E-05   2.000000E-08   6.700000E-04   4.000000E-05   1.000000E+00
   4.471000E-05   3.000000E-08   1.500000E-04   2.000000E-05   1.000000E+00
   4.538000E-05   4.000000E-08   1.250000E-04   5.000000E-06   1.000000E+00
   7.029000E-05   4.000000E-08   4.500000E-04   3.000000E-05   1.000000E+00
   9.158999E-05   4.000000E-08   1.570000E-03   5.500000E-04   1.000000E+00
   9.300000E-05   5.000000E-08   2.200000E-04   2.000000E-05   1.000000E+00
   1.039500E-04   5.000000E-08   1.500000E-03   1.000000E-04   1.000000E+00
   1.234000E-04   1.000000E-07   5.000000E-04   1.000000E-04   1.000000E+00
   2.034000E-04   2.000000E-07   1.330000E-03   7.000000E-05   1.000000E+00
   2.285000E-04   2.000000E-07   1.200000E-03   3.000000E-04   1.000000E+00
   2.345000E-04   2.000000E-07   4.200000E-04   4.000000E-05   1.000000E+00
   2.361000E-04   2.000000E-07   2.200000E-04   6.000000E-05   1.000000E+00
   2.393000E-04   2.000000E-07   1.900000E-04   6.000000E-05   1.000000E+00
   2.417000E-04   2.000000E-07   5.300000E-04   6.000000E-05   1.000000E+00
   2.705000E-04   1.000000E-07   2.700000E-04   4.000000E-05   1.000000E+00
   2.768000E-04   1.000000E-07   1.000000E-04   4.000000E-05   1.000000E+00
   3.043000E-04   1.000000E-07   3.600000E-04   4.000000E-05   1.000000E+00
   3.139000E-04   2.000000E-07   2.000000E-04   5.000000E-05   1.000000E+00
   3.258000E-04   2.000000E-07   3.200000E-04   6.000000E-05   1.000000E+00
   4.414000E-04   3.000000E-07   3.300000E-04   4.000000E-05   1.000000E+00
   5.116000E-04   3.000000E-07   8.700000E-04   1.000000E-04   1.000000E+00
   5.448000E-04   3.000000E-07   1.800000E-03   1.000000E-04   1.000000E+00
   5.554000E-04   4.000000E-07   5.000000E-04   5.000000E-05   1.000000E+00
   5.829000E-04   4.000000E-07   2.300000E-03   1.000000E-04   1.000000E+00
   5.930000E-04   4.000000E-07   8.500000E-04   5.000000E-05   1.000000E+00
   6.255000E-04   4.000000E-07   1.400000E-03   1.000000E-04   1.000000E+00
   6.608000E-04   5.000000E-07   1.440000E-03   9.000000E-05   1.000000E+00
   7.146000E-04   5.000000E-07   1.700000E-03   2.000000E-04   1.000000E+00
   7.699000E-04   6.000000E-07   1.300000E-03   1.000000E-04   1.000000E+00
   7.776000E-04   6.000000E-07   5.700000E-04   5.000000E-05   1.000000E+00
   7.853000E-04   6.000000E-07   7.300000E-04   5.000000E-05   1.000000E+00
   8.094001E-04   6.000000E-07   6.700000E-04   5.000000E-05   1.000000E+00
   9.120000E-04   4.000000E-07   3.000000E-03   4.000000E-04   1.000000E+00
   1.064600E-03   5.000000E-07   7.000000E-04   1.000000E-04   1.000000E+00
   1.230000E-03   6.000000E-07   1.600000E-03   2.000000E-04   1.000000E+00
   1.254600E-03   6.000000E-07   1.700000E-03   2.000000E-04   1.000000E+00
   1.729700E-03   1.000000E-06   5.000000E-04   1.000000E-04   1.000000E+00
   1.761900E-03   1.000000E-06   1.500000E-03   3.000000E-04   1.000000E+00
   1.872900E-03   1.100000E-06   1.800000E-03   3.000000E-04   1.000000E+00
   1.885200E-03   1.100000E-06   5.000000E-04   1.000000E-04   1.000000E+00
   1.911800E-03   1.100000E-06   1.140000E-03   2.200000E-04   1.000000E+00
   1.974000E-03   1.200000E-06   8.600000E-04   2.500000E-04   1.000000E+00
   1.988400E-03   1.200000E-06   5.600000E-04   2.000000E-04   1.000000E+00
   1.996000E-03   1.200000E-06   6.000000E-04   2.000000E-04   1.000000E+00
# reference:
#   author: G.HACKEN,H.I.LIOU,H.S.CAMARDA,W.J.MAKOFSKE,F.RAHN, J.RAINWATER,M.SLAGOWITZ,S.WYNCHANK
#   title: Neutron resonance spectroscopy. XVI. 113In, 115In.
#   journal: Jour: Physical Review, Part C, Nuclear Physics, Vol.10, p.1910 (1974)
