# header: 
#   title: Yb172(n,res) resonance parameter
#   source: EXFOR
#   user: Arjan Koning
#   date: 2025-12-18
#   format: YANDF-0.4
# exfor: 
#   author: Liou
#   year: 1973
#   subentry: 100810111
#   X4 reaction: 70-YB-172(N,0),,EN
#   X4 source: IAEA-NDS C5 file, database version 2023-08-08
#   X4 link: https://nds.iaea.org/EXFOR/100810111
# target: 
#   Z: 70
#   A: 172
#   nuclide: Yb172
# reaction: 
#   type: (n,res)
#   ENDF_MF: 402
#   ENDF_MT: 151
#   quantity: 
#     type: resonance parameter
#   datablock: 
#     columns: 5
#     entries: 100
##       E             dE             par           dpar       Normalization
##     [eV]           [eV]            []             []             []
   1.398200E-04   1.800000E-07   1.398200E+02   1.800000E-01   1.000000E+00
   1.802800E-04   1.300000E-07   1.802800E+02   1.300000E-01   1.000000E+00
   2.014800E-04   1.600000E-07   2.014800E+02   1.600000E-01   1.000000E+00
   3.236800E-04   3.200000E-07   3.236800E+02   3.200000E-01   1.000000E+00
   4.592500E-04   2.700000E-07   4.592500E+02   2.700000E-01   1.000000E+00
   5.087200E-04   3.200000E-07   5.087200E+02   3.200000E-01   1.000000E+00
   5.444200E-04   3.500000E-07   5.444200E+02   3.500000E-01   1.000000E+00
   6.196200E-04   4.300000E-07   6.196200E+02   4.300000E-01   1.000000E+00
   6.619900E-04   4.700000E-07   6.619900E+02   4.700000E-01   1.000000E+00
   7.537900E-04   5.700000E-07   7.537900E+02   5.700000E-01   1.000000E+00
   8.154000E-04   6.400000E-07   8.154000E+02   6.400000E-01   1.000000E+00
   8.591900E-04   3.500000E-07   8.591900E+02   3.500000E-01   1.000000E+00
   8.756100E-04   3.600000E-07   8.756100E+02   3.600000E-01   1.000000E+00
   9.813700E-04   4.200000E-07   9.813700E+02   4.200000E-01   1.000000E+00
   1.066700E-03   5.000000E-07   1.066700E+03   5.000000E-01   1.000000E+00
   1.129400E-03   5.000000E-07   1.129400E+03   5.000000E-01   1.000000E+00
   1.204000E-03   6.000000E-07   1.204000E+03   6.000000E-01   1.000000E+00
   1.282300E-03   7.000000E-07   1.282300E+03   7.000000E-01   1.000000E+00
   1.334700E-03   7.000000E-07   1.334700E+03   7.000000E-01   1.000000E+00
   1.455600E-03   8.000000E-07   1.455600E+03   8.000000E-01   1.000000E+00
   1.511900E-03   8.000000E-07   1.511900E+03   8.000000E-01   1.000000E+00
   1.702800E-03   5.000000E-07   1.702800E+03   5.000000E-01   1.000000E+00
   1.733900E-03   5.000000E-07   1.733900E+03   5.000000E-01   1.000000E+00
   1.786800E-03   5.000000E-07   1.786800E+03   5.000000E-01   1.000000E+00
   1.826600E-03   1.000000E-06   1.826600E+03   1.000000E+00   1.000000E+00
   1.892700E-03   6.000000E-07   1.892700E+03   6.000000E-01   1.000000E+00
   1.914800E-03   6.000000E-07   1.914800E+03   6.000000E-01   1.000000E+00
   1.977400E-03   6.000000E-07   1.977400E+03   6.000000E-01   1.000000E+00
   2.001600E-03   7.000000E-07   2.001600E+03   7.000000E-01   1.000000E+00
   2.120300E-03   7.000000E-07   2.120300E+03   7.000000E-01   1.000000E+00
   2.162100E-03   7.000000E-07   2.162100E+03   7.000000E-01   1.000000E+00
   2.278700E-03   8.000000E-07   2.278700E+03   8.000000E-01   1.000000E+00
   2.401400E-03   8.000000E-07   2.401400E+03   8.000000E-01   1.000000E+00
   2.433400E-03   1.700000E-06   2.433400E+03   1.700000E+00   1.000000E+00
   2.520900E-03   9.000000E-07   2.520900E+03   9.000000E-01   1.000000E+00
   2.549100E-03   9.000000E-07   2.549100E+03   9.000000E-01   1.000000E+00
   2.574800E-03   9.000000E-07   2.574800E+03   9.000000E-01   1.000000E+00
   2.726700E-03   1.000000E-06   2.726700E+03   1.000000E+00   1.000000E+00
   2.817800E-03   1.000000E-06   2.817800E+03   1.000000E+00   1.000000E+00
   2.901700E-03   1.100000E-06   2.901700E+03   1.100000E+00   1.000000E+00
   2.913500E-03   1.100000E-06   2.913500E+03   1.100000E+00   1.000000E+00
   2.953100E-03   1.100000E-06   2.953100E+03   1.100000E+00   1.000000E+00
   3.027800E-03   1.200000E-06   3.027800E+03   1.200000E+00   1.000000E+00
   3.100600E-03   1.200000E-06   3.100600E+03   1.200000E+00   1.000000E+00
   3.203200E-03   1.300000E-06   3.203200E+03   1.300000E+00   1.000000E+00
   3.238100E-03   1.300000E-06   3.238100E+03   1.300000E+00   1.000000E+00
   3.334800E-03   1.300000E-06   3.334800E+03   1.300000E+00   1.000000E+00
   3.385500E-03   1.400000E-06   3.385500E+03   1.400000E+00   1.000000E+00
   3.520200E-03   1.400000E-06   3.520200E+03   1.400000E+00   1.000000E+00
   3.556200E-03   1.500000E-06   3.556200E+03   1.500000E+00   1.000000E+00
   3.695100E-03   1.500000E-06   3.695100E+03   1.500000E+00   1.000000E+00
   3.734600E-03   1.600000E-06   3.734600E+03   1.600000E+00   1.000000E+00
   3.813100E-03   1.600000E-06   3.813100E+03   1.600000E+00   1.000000E+00
   3.878400E-03   1.700000E-06   3.878400E+03   1.700000E+00   1.000000E+00
   3.900000E-03   1.700000E-06   3.900000E+03   1.700000E+00   1.000000E+00
   4.022900E-03   1.800000E-06   4.022900E+03   1.800000E+00   1.000000E+00
   4.205400E-03   1.900000E-06   4.205400E+03   1.900000E+00   1.000000E+00
   4.362800E-03   2.000000E-06   4.362800E+03   2.000000E+00   1.000000E+00
   4.386500E-03   2.000000E-06   4.386500E+03   2.000000E+00   1.000000E+00
   4.483600E-03   2.100000E-06   4.483600E+03   2.100000E+00   1.000000E+00
   4.566900E-03   2.100000E-06   4.566900E+03   2.100000E+00   1.000000E+00
   4.685300E-03   2.200000E-06   4.685300E+03   2.200000E+00   1.000000E+00
   4.837100E-03   2.300000E-06   4.837100E+03   2.300000E+00   1.000000E+00
   4.877600E-03   2.300000E-06   4.877600E+03   2.300000E+00   1.000000E+00
   5.001100E-03   2.500000E-06   5.001100E+03   2.500000E+00   1.000000E+00
   5.273500E-03   2.600000E-06   5.273500E+03   2.600000E+00   1.000000E+00
   5.371800E-03   2.700000E-06   5.371800E+03   2.700000E+00   1.000000E+00
   5.565600E-03   2.900000E-06   5.565600E+03   2.900000E+00   1.000000E+00
   5.631500E-03   2.900000E-06   5.631500E+03   2.900000E+00   1.000000E+00
   5.654700E-03   2.900000E-06   5.654700E+03   2.900000E+00   1.000000E+00
   5.775900E-03   3.000000E-06   5.775900E+03   3.000000E+00   1.000000E+00
   5.830400E-03   3.000000E-06   5.830400E+03   3.000000E+00   1.000000E+00
   5.904200E-03   3.100000E-06   5.904200E+03   3.100000E+00   1.000000E+00
   5.949500E-03   3.200000E-06   5.949500E+03   3.200000E+00   1.000000E+00
   6.534300E-03   3.600000E-06   6.534300E+03   3.600000E+00   1.000000E+00
   6.588800E-03   3.700000E-06   6.588800E+03   3.700000E+00   1.000000E+00
   6.610800E-03   3.700000E-06   6.610800E+03   3.700000E+00   1.000000E+00
   6.791500E-03   3.500000E-06   6.791500E+03   3.500000E+00   1.000000E+00
   6.876600E-03   3.900000E-06   6.876600E+03   3.900000E+00   1.000000E+00
   7.086200E-03   4.100000E-06   7.086200E+03   4.100000E+00   1.000000E+00
   7.154000E-03   4.200000E-06   7.154000E+03   4.200000E+00   1.000000E+00
   7.267100E-03   4.300000E-06   7.267100E+03   4.300000E+00   1.000000E+00
   7.435300E-03   4.400000E-06   7.435300E+03   4.400000E+00   1.000000E+00
   7.515000E-03   4.500000E-06   7.515000E+03   4.500000E+00   1.000000E+00
   7.666600E-03   4.600000E-06   7.666600E+03   4.600000E+00   1.000000E+00
   7.799200E-03   4.700000E-06   7.799200E+03   4.700000E+00   1.000000E+00
   8.060100E-03   5.000000E-06   8.060100E+03   5.000000E+00   1.000000E+00
   8.221000E-03   5.100000E-06   8.221000E+03   5.100000E+00   1.000000E+00
   8.298000E-03   5.200000E-06   8.298000E+03   5.200000E+00   1.000000E+00
   8.601000E-03   5.500000E-06   8.601000E+03   5.500000E+00   1.000000E+00
   8.705599E-03   5.600000E-06   8.705600E+03   5.600000E+00   1.000000E+00
   9.132099E-03   6.000000E-06   9.132100E+03   6.000000E+00   1.000000E+00
   9.223100E-03   6.100000E-06   9.223100E+03   6.100000E+00   1.000000E+00
   9.476700E-03   6.400000E-06   9.476700E+03   6.400000E+00   1.000000E+00
   9.656000E-03   6.500000E-06   9.656000E+03   6.500000E+00   1.000000E+00
   9.767400E-03   6.600000E-06   9.767400E+03   6.600000E+00   1.000000E+00
   9.807200E-03   6.600000E-06   9.807200E+03   6.600000E+00   1.000000E+00
   9.927901E-03   6.800000E-06   9.927900E+03   6.800000E+00   1.000000E+00
   1.001700E-02   7.000000E-06   1.001700E+04   7.000000E+00   1.000000E+00
   1.010200E-02   7.000000E-06   1.010200E+04   7.000000E+00   1.000000E+00
# reference:
#   author: H.I.LIOU,H.S.CAMARDA,G.HACKEN,F.RAHN,J.RAINWATER, M.SLAGOWITZ,S.WYNCHANK
#   title: Neutron resonance spectroscopy. XI. The separated  isotopes of Yb.
#   journal: Jour: Physical Review, Part C, Nuclear Physics, Vol.7, p.823 (1973)
