# header: 
#   title: Yb170(n,res) resonance parameter
#   source: EXFOR
#   user: Arjan Koning
#   date: 2025-12-01
#   format: YANDF-0.4
# exfor: 
#   author: Liou
#   year: 1973
#   subentry: 100810052
#   X4 reaction: 70-YB-170(N,EL),,WID/RED
#   X4 source: IAEA-NDS C5 file, database version 2023-08-08
#   X4 link: https://nds.iaea.org/EXFOR/100810052
# target: 
#   Z: 70
#   A: 170
#   nuclide: Yb170
# reaction: 
#   type: (n,res)
#   ENDF_MF: 402
#   ENDF_MT: 151
#   quantity: 
#     type: resonance parameter
#   datablock: 
#     columns: 5
#     entries: 19
##       E             dE             par           dpar       Normalization
##     [eV]           [eV]            []             []             []
   3.993000E-05   6.000000E-08   3.000000E-02   4.000000E-03   1.000000E+00
   6.657000E-05   6.000000E-08   5.200000E-03   2.000000E-03   1.000000E+00
   7.291001E-05   7.000000E-08   6.300000E-03   1.100000E-03   1.000000E+00
   9.531000E-05   1.000000E-07   1.430000E-03   4.100000E-04   1.000000E+00
   2.128100E-04   3.400000E-07   1.300000E-02   2.000000E-03   1.000000E+00
   2.699700E-04   2.400000E-07   4.600000E-03   9.000000E-04   1.000000E+00
   2.863500E-04   2.700000E-07   7.200000E-03   2.400000E-03   1.000000E+00
   3.580000E-04   3.800000E-07   3.800000E-03   1.100000E-03   1.000000E+00
   4.478800E-04   5.200000E-07   9.500000E-03   1.900000E-03   1.000000E+00
   4.518000E-04   5.300000E-07   3.200000E-03   7.000000E-04   1.000000E+00
   6.120800E-04   8.300000E-07   8.500000E-03   2.400000E-03   1.000000E+00
   7.617900E-04   1.150000E-06   7.200000E-03   1.800000E-03   1.000000E+00
   8.087500E-04   1.260000E-06   7.000000E-03   1.400000E-03   1.000000E+00
   8.689100E-04   7.000000E-07   3.000000E-03   7.000000E-04   1.000000E+00
   9.526000E-04   8.000000E-07   1.390000E-03   4.900000E-04   1.000000E+00
   9.784300E-04   8.400000E-07   2.000000E-02   4.000000E-03   1.000000E+00
   1.037100E-03   1.000000E-06   6.800000E-03   2.500000E-03   1.000000E+00
   1.296200E-03   1.200000E-06   1.000000E-02   3.200000E-03   1.000000E+00
   1.328000E-03   1.400000E-06   5.200000E-03   1.400000E-03   1.000000E+00
# reference:
#   author: H.I.LIOU,H.S.CAMARDA,G.HACKEN,F.RAHN,J.RAINWATER, M.SLAGOWITZ,S.WYNCHANK
#   title: Neutron resonance spectroscopy. XI. The separated  isotopes of Yb.
#   journal: Jour: Physical Review, Part C, Nuclear Physics, Vol.7, p.823 (1973)
