# header: 
#   title: Mo97(n,res) resonance parameter
#   source: EXFOR
#   user: Arjan Koning
#   date: 2025-08-01
#   format: YANDF-0.2
# exfor: 
#   author: Weigmann
#   year: 1971
#   subentry: 20398026
#   X4 reaction: 42-MO-97(N,0),,EN
#   X4 source: IAEA-NDS C5 file, database version 2023-08-08
#   X4 link: https://nds.iaea.org/EXFOR/20398026
# target: 
#   Z: 42
#   A: 97
#   nuclide: Mo97
# reaction: 
#   type: (n,res)
#   ENDF_MF: 402
#   ENDF_MT: 151
#   quantity: 
#     type: resonance parameter
#   datablock: 
#     columns: 5
#     entries: 65
##       E             dE             par           dpar       Normalization
##     [eV]           [eV]            []             []             []
   7.092000E-05   0.000000E+00   7.092000E+01   0.000000E+00   1.000000E+00
   7.955000E-05   0.000000E+00   7.955000E+01   0.000000E+00   1.000000E+00
   1.095800E-04   0.000000E+00   1.095800E+02   0.000000E+00   1.000000E+00
   1.268900E-04   0.000000E+00   1.268900E+02   0.000000E+00   1.000000E+00
   1.363200E-04   0.000000E+00   1.363200E+02   0.000000E+00   1.000000E+00
   2.099800E-04   0.000000E+00   2.099800E+02   0.000000E+00   1.000000E+00
   2.275800E-04   0.000000E+00   2.275800E+02   0.000000E+00   1.000000E+00
   2.333300E-04   0.000000E+00   2.333300E+02   0.000000E+00   1.000000E+00
   2.479100E-04   0.000000E+00   2.479100E+02   0.000000E+00   1.000000E+00
   2.680200E-04   0.000000E+00   2.680200E+02   0.000000E+00   1.000000E+00
   2.860300E-04   0.000000E+00   2.860300E+02   0.000000E+00   1.000000E+00
   3.120700E-04   0.000000E+00   3.120700E+02   0.000000E+00   1.000000E+00
   3.211200E-04   0.000000E+00   3.211200E+02   0.000000E+00   1.000000E+00
   3.527100E-04   0.000000E+00   3.527100E+02   0.000000E+00   1.000000E+00
   3.809100E-04   0.000000E+00   3.809100E+02   0.000000E+00   1.000000E+00
   3.971600E-04   0.000000E+00   3.971600E+02   0.000000E+00   1.000000E+00
   4.573000E-04   0.000000E+00   4.573000E+02   0.000000E+00   1.000000E+00
   5.054500E-04   0.000000E+00   5.054500E+02   0.000000E+00   1.000000E+00
   5.283401E-04   0.000000E+00   5.283400E+02   0.000000E+00   1.000000E+00
   5.338100E-04   0.000000E+00   5.338100E+02   0.000000E+00   1.000000E+00
   5.482500E-04   0.000000E+00   5.482500E+02   0.000000E+00   1.000000E+00
   5.584300E-04   0.000000E+00   5.584300E+02   0.000000E+00   1.000000E+00
   5.640600E-04   0.000000E+00   5.640600E+02   0.000000E+00   1.000000E+00
   5.680000E-04   0.000000E+00   5.680000E+02   0.000000E+00   1.000000E+00
   5.719700E-04   0.000000E+00   5.719700E+02   0.000000E+00   1.000000E+00
   5.785200E-04   0.000000E+00   5.785200E+02   0.000000E+00   1.000000E+00
   6.531600E-04   0.000000E+00   6.531600E+02   0.000000E+00   1.000000E+00
   6.763200E-04   0.000000E+00   6.763200E+02   0.000000E+00   1.000000E+00
   6.946800E-04   0.000000E+00   6.946800E+02   0.000000E+00   1.000000E+00
   7.007400E-04   0.000000E+00   7.007400E+02   0.000000E+00   1.000000E+00
   7.864800E-04   0.000000E+00   7.864800E+02   0.000000E+00   1.000000E+00
   8.092000E-04   0.000000E+00   8.092000E+02   0.000000E+00   1.000000E+00
   8.625000E-04   0.000000E+00   8.625000E+02   0.000000E+00   1.000000E+00
   9.056800E-04   0.000000E+00   9.056800E+02   0.000000E+00   1.000000E+00
   9.751400E-04   0.000000E+00   9.751400E+02   0.000000E+00   1.000000E+00
   1.008200E-03   0.000000E+00   1.008200E+03   0.000000E+00   1.000000E+00
   1.108700E-03   0.000000E+00   1.108700E+03   0.000000E+00   1.000000E+00
   1.133400E-03   0.000000E+00   1.133400E+03   0.000000E+00   1.000000E+00
   1.176400E-03   0.000000E+00   1.176400E+03   0.000000E+00   1.000000E+00
   1.194200E-03   0.000000E+00   1.194200E+03   0.000000E+00   1.000000E+00
   1.248800E-03   0.000000E+00   1.248800E+03   0.000000E+00   1.000000E+00
   1.270100E-03   0.000000E+00   1.270100E+03   0.000000E+00   1.000000E+00
   1.293500E-03   0.000000E+00   1.293500E+03   0.000000E+00   1.000000E+00
   1.317600E-03   0.000000E+00   1.317600E+03   0.000000E+00   1.000000E+00
   1.333500E-03   0.000000E+00   1.333500E+03   0.000000E+00   1.000000E+00
   1.364300E-03   0.000000E+00   1.364300E+03   0.000000E+00   1.000000E+00
   1.375400E-03   0.000000E+00   1.375400E+03   0.000000E+00   1.000000E+00
   1.398000E-03   0.000000E+00   1.398000E+03   0.000000E+00   1.000000E+00
   1.425200E-03   0.000000E+00   1.425200E+03   0.000000E+00   1.000000E+00
   1.453100E-03   0.000000E+00   1.453100E+03   0.000000E+00   1.000000E+00
   1.485000E-03   0.000000E+00   1.485000E+03   0.000000E+00   1.000000E+00
   1.534200E-03   0.000000E+00   1.534200E+03   0.000000E+00   1.000000E+00
   1.554200E-03   0.000000E+00   1.554200E+03   0.000000E+00   1.000000E+00
   1.596400E-03   0.000000E+00   1.596400E+03   0.000000E+00   1.000000E+00
   1.628400E-03   0.000000E+00   1.628400E+03   0.000000E+00   1.000000E+00
   1.699000E-03   0.000000E+00   1.699000E+03   0.000000E+00   1.000000E+00
   1.712500E-03   0.000000E+00   1.712500E+03   0.000000E+00   1.000000E+00
   1.740700E-03   0.000000E+00   1.740700E+03   0.000000E+00   1.000000E+00
   1.795000E-03   0.000000E+00   1.795000E+03   0.000000E+00   1.000000E+00
   1.835900E-03   0.000000E+00   1.835900E+03   0.000000E+00   1.000000E+00
   1.865000E-03   0.000000E+00   1.865000E+03   0.000000E+00   1.000000E+00
   1.870900E-03   0.000000E+00   1.870900E+03   0.000000E+00   1.000000E+00
   1.903800E-03   0.000000E+00   1.903800E+03   0.000000E+00   1.000000E+00
   1.931500E-03   0.000000E+00   1.931500E+03   0.000000E+00   1.000000E+00
   1.940800E-03   0.000000E+00   1.940800E+03   0.000000E+00   1.000000E+00
# reference:
#   author: H.WEIGMANN, G.ROHR, J.WINTER
#   title: -NEUTRON CAPTURE MEASUREMENTS AND RESONANCE PARAMETERS  OF MO-ISOTOPES.-
#   journal: Conf: 3rd Conf.Neutron Cross-Sections+Tech.,Knoxville 1971, p.749 (1971)
