# header: 
#   title: Mo97(n,res) resonance parameter
#   source: EXFOR
#   user: Arjan Koning
#   date: 2025-08-01
#   format: YANDF-0.2
# exfor: 
#   author: Weigmann
#   year: 1971
#   subentry: 20398023
#   X4 reaction: (42-MO-97(N,EL),,WID,,G)*(42-MO-97(N,G),,WID)/(42-MO-97(N,TO
#   X4 source: IAEA-NDS C5 file, database version 2023-08-08
#   X4 link: https://nds.iaea.org/EXFOR/20398023
# target: 
#   Z: 42
#   A: 97
#   nuclide: Mo97
# reaction: 
#   type: (n,res)
#   ENDF_MF: 402
#   ENDF_MT: 151
#   quantity: 
#     type: resonance parameter
#   datablock: 
#     columns: 5
#     entries: 63
##       E             dE             par           dpar       Normalization
##     [eV]           [eV]            []             []             []
   7.092000E-05   0.000000E+00   7.000000E-03   4.000000E-04   1.000000E+00
   7.955000E-05   0.000000E+00   5.600000E-05   1.600000E-05   1.000000E+00
   1.095800E-04   0.000000E+00   1.100000E-04   4.100000E-05   1.000000E+00
   1.268900E-04   0.000000E+00   9.800000E-05   3.700000E-05   1.000000E+00
   1.363200E-04   0.000000E+00   5.700000E-04   5.100000E-05   1.000000E+00
   2.099800E-04   0.000000E+00   5.400000E-04   5.300000E-05   1.000000E+00
   2.275800E-04   0.000000E+00   1.260000E-03   9.400000E-05   1.000000E+00
   2.333300E-04   0.000000E+00   3.300000E-04   5.200000E-05   1.000000E+00
   2.479100E-04   0.000000E+00   7.800000E-04   7.400000E-05   1.000000E+00
   2.680200E-04   0.000000E+00   8.000000E-03   5.000000E-04   1.000000E+00
   2.860300E-04   0.000000E+00   2.300000E-02   1.700000E-03   1.000000E+00
   3.120700E-04   0.000000E+00   5.100000E-03   4.000000E-04   1.000000E+00
   3.211200E-04   0.000000E+00   9.300000E-04   1.390000E-04   1.000000E+00
   3.527100E-04   0.000000E+00   4.200000E-03   5.000000E-04   1.000000E+00
   3.809100E-04   0.000000E+00   2.900000E-03   2.000000E-04   1.000000E+00
   3.971600E-04   0.000000E+00   2.650000E-02   1.700000E-03   1.000000E+00
   4.573000E-04   0.000000E+00   8.500000E-04   1.100000E-04   1.000000E+00
   5.054500E-04   0.000000E+00   2.100000E-02   1.400000E-03   1.000000E+00
   5.283401E-04   0.000000E+00   7.400000E-04   1.110000E-04   1.000000E+00
   5.338100E-04   0.000000E+00   2.200000E-03   2.000000E-04   1.000000E+00
   5.482500E-04   0.000000E+00   2.200000E-03   2.000000E-04   1.000000E+00
   5.584300E-04   0.000000E+00   6.200000E-02   4.000000E-03   1.000000E+00
   5.640600E-04   0.000000E+00   1.300000E-03   6.500000E-04   1.000000E+00
   5.680000E-04   0.000000E+00   3.200000E-03   4.000000E-04   1.000000E+00
   5.719700E-04   0.000000E+00   2.700000E-03   4.000000E-04   1.000000E+00
   5.785200E-04   0.000000E+00   8.400000E-04   1.250000E-04   1.000000E+00
   6.531600E-04   0.000000E+00   1.320000E-03   1.710000E-04   1.000000E+00
   6.763200E-04   0.000000E+00   7.800000E-02   7.000000E-03   1.000000E+00
   6.946800E-04   0.000000E+00   5.800000E-03   4.000000E-04   1.000000E+00
   7.007400E-04   0.000000E+00   4.400000E-03   3.000000E-04   1.000000E+00
   7.864800E-04   0.000000E+00   5.900000E-02   4.000000E-03   1.000000E+00
   8.092000E-04   0.000000E+00   1.940000E-03   2.520000E-04   1.000000E+00
   8.625000E-04   0.000000E+00   1.980000E-02   1.300000E-03   1.000000E+00
   9.056800E-04   0.000000E+00   4.700000E-03   4.000000E-04   1.000000E+00
   9.751400E-04   0.000000E+00   6.500000E-03   5.000000E-04   1.000000E+00
   1.008200E-03   0.000000E+00   2.280000E-02   1.500000E-03   1.000000E+00
   1.108700E-03   0.000000E+00   4.100000E-02   3.000000E-03   1.000000E+00
   1.133400E-03   0.000000E+00   2.080000E-02   1.400000E-03   1.000000E+00
   1.176400E-03   0.000000E+00   2.680000E-02   1.800000E-03   1.000000E+00
   1.194200E-03   0.000000E+00   4.500000E-03   4.000000E-04   1.000000E+00
   1.248800E-03   0.000000E+00   6.500001E-02   5.000000E-03   1.000000E+00
   1.270100E-03   0.000000E+00   2.020000E-02   1.400000E-03   1.000000E+00
   1.293500E-03   0.000000E+00   1.630000E-02   1.200000E-03   1.000000E+00
   1.317600E-03   0.000000E+00   2.150000E-02   1.500000E-03   1.000000E+00
   1.333500E-03   0.000000E+00   2.050000E-02   1.400000E-03   1.000000E+00
   1.364300E-03   0.000000E+00   2.400000E-02   1.600000E-03   1.000000E+00
   1.375400E-03   0.000000E+00   5.300000E-03   7.000000E-04   1.000000E+00
   1.398000E-03   0.000000E+00   6.500000E-03   7.000000E-04   1.000000E+00
   1.425200E-03   0.000000E+00   3.200000E-02   2.000000E-03   1.000000E+00
   1.453100E-03   0.000000E+00   8.500000E-03   1.100000E-03   1.000000E+00
   1.485000E-03   0.000000E+00   5.500000E-03   7.000000E-04   1.000000E+00
   1.534200E-03   0.000000E+00   5.500000E-02   4.000000E-03   1.000000E+00
   1.554200E-03   0.000000E+00   2.800000E-03   5.000000E-04   1.000000E+00
   1.596400E-03   0.000000E+00   3.900000E-02   3.000000E-03   1.000000E+00
   1.628400E-03   0.000000E+00   6.600000E-03   7.000000E-04   1.000000E+00
   1.699000E-03   0.000000E+00   3.300000E-02   2.000000E-03   1.000000E+00
   1.712500E-03   0.000000E+00   5.500000E-02   4.000000E-03   1.000000E+00
   1.740700E-03   0.000000E+00   1.510000E-02   1.200000E-03   1.000000E+00
   1.795000E-03   0.000000E+00   2.020000E-02   1.500000E-03   1.000000E+00
   1.835900E-03   0.000000E+00   6.300000E-03   8.000000E-04   1.000000E+00
   1.903800E-03   0.000000E+00   2.690000E-02   2.100000E-03   1.000000E+00
   1.931500E-03   0.000000E+00   3.600000E-02   3.000000E-03   1.000000E+00
   1.940800E-03   0.000000E+00   3.800000E-02   3.000000E-03   1.000000E+00
# reference:
#   author: H.WEIGMANN, G.ROHR, J.WINTER
#   title: -NEUTRON CAPTURE MEASUREMENTS AND RESONANCE PARAMETERS  OF MO-ISOTOPES.-
#   journal: Conf: 3rd Conf.Neutron Cross-Sections+Tech.,Knoxville 1971, p.749 (1971)
