# header: 
#   title: Nb93(n,xn) emission spectrum at  9.000000E+00 MeV
#   source: EXFOR
#   user: Arjan Koning
#   date: 2025-08-01
#   format: YANDF-0.2
# exfor: 
#   author: Schmidt
#   year: 1987
#   subentry: 32001031
#   X4 reaction: 41-NB-93(N,X)0-NN-1,,DE
#   X4 source: IAEA-NDS C5 file, database version 2023-08-08
#   X4 link: https://nds.iaea.org/EXFOR/32001031
# target: 
#   Z: 41
#   A: 93
#   nuclide: Nb93
# reaction: 
#   type: (n,xn)
#   ENDF_MF: 5
#   ENDF_MT: 201
#   E-incident [MeV]:  9.000000E+00
#   quantity: 
#     type: emission spectrum
#   datablock: 
#     columns: 5
#     entries: 28
##     E-out         dE-out           xs             dxs       Normalization
##     [MeV]          [MeV]       [mb/MeV.sr]    [mb/MeV.sr]        []
   2.000000E+00   0.000000E+00   4.080000E-04   2.100000E-05   1.000000E+00
   2.250000E+00   0.000000E+00   3.520000E-04   2.000000E-05   1.000000E+00
   2.500000E+00   0.000000E+00   3.020000E-04   1.800000E-05   1.000000E+00
   2.750000E+00   0.000000E+00   2.580000E-04   1.300000E-05   1.000000E+00
   3.000000E+00   0.000000E+00   2.150000E-04   1.100000E-05   1.000000E+00
   3.250000E+00   0.000000E+00   1.772000E-04   9.100000E-06   1.000000E+00
   3.500000E+00   0.000000E+00   1.548000E-04   9.400000E-06   1.000000E+00
   3.750000E+00   0.000000E+00   1.312000E-04   9.200000E-06   1.000000E+00
   4.000000E+00   0.000000E+00   1.097000E-04   7.500000E-06   1.000000E+00
   4.250000E+00   0.000000E+00   9.280000E-05   7.100000E-06   1.000000E+00
   4.500000E+00   0.000000E+00   8.260000E-05   7.000000E-06   1.000000E+00
   4.750000E+00   0.000000E+00   7.560000E-05   7.300000E-06   1.000000E+00
   5.000000E+00   0.000000E+00   6.930000E-05   6.400000E-06   1.000000E+00
   5.250000E+00   0.000000E+00   7.210000E-05   8.800000E-06   1.000000E+00
   5.500000E+00   0.000000E+00   6.980000E-05   8.399999E-06   1.000000E+00
   5.750000E+00   0.000000E+00   6.870000E-05   7.600000E-06   1.000000E+00
   6.000000E+00   0.000000E+00   6.870000E-05   7.400000E-06   1.000000E+00
   6.250000E+00   0.000000E+00   6.570000E-05   7.300000E-06   1.000000E+00
   6.500000E+00   0.000000E+00   6.509999E-05   7.600000E-06   1.000000E+00
   6.750000E+00   0.000000E+00   6.770000E-05   8.300000E-06   1.000000E+00
   7.000000E+00   0.000000E+00   7.160000E-05   8.999999E-06   1.000000E+00
   7.250000E+00   0.000000E+00   7.540000E-05   9.500000E-06   1.000000E+00
   7.500000E+00   0.000000E+00   8.100001E-05   9.500000E-06   1.000000E+00
   7.750000E+00   0.000000E+00   8.610000E-05   1.080000E-05   1.000000E+00
   8.000000E+00   0.000000E+00   8.630000E-05   1.460000E-05   1.000000E+00
   8.250000E+00   0.000000E+00   8.280000E-05   1.540000E-05   1.000000E+00
   8.500000E+00   0.000000E+00   7.860000E-05   1.610000E-05   1.000000E+00
   8.750000E+00   0.000000E+00   7.440000E-05   1.290000E-05   1.000000E+00
# reference:
#   author: D.Schmidt, D.Seeliger, G.N.Lovchikova, A.M.Trufanov
#   title: Measurement and status of neutron scattering on 6Li and 7Li between 6 and 14 MeV
#   journal: Jour: Nuclear Science and Engineering, Vol.96, p.159 (1987)
