# header: 
#   title: Nb93(n,xn) emission spectrum at  1.800000E+01 MeV
#   source: EXFOR
#   user: Arjan Koning
#   date: 2025-12-01
#   format: YANDF-0.4
# exfor: 
#   author: Matsuyama
#   year: 1992
#   subentry: 22298003
#   X4 reaction: 41-NB-93(N,X)0-NN-1,,DE
#   X4 source: IAEA-NDS C5 file, database version 2023-08-08
#   X4 link: https://nds.iaea.org/EXFOR/22298003
# target: 
#   Z: 41
#   A: 93
#   nuclide: Nb93
# reaction: 
#   type: (n,xn)
#   ENDF_MF: 5
#   ENDF_MT: 201
#   E-incident [MeV]:  1.800000E+01
#   quantity: 
#     type: emission spectrum
#   datablock: 
#     columns: 5
#     entries: 92
##     E-out         dE-out           xs             dxs       Normalization
##     [MeV]          [MeV]       [mb/MeV.sr]    [mb/MeV.sr]        []
   1.900000E+00   1.000000E-01   5.195900E-04   2.692900E-05   1.000000E+00
   2.100000E+00   1.000000E-01   5.732300E-04   2.915100E-05   1.000000E+00
   2.300000E+00   1.000000E-01   5.296900E-04   2.674000E-05   1.000000E+00
   2.500000E+00   1.000000E-01   4.823100E-04   2.516500E-05   1.000000E+00
   2.700000E+00   1.000000E-01   4.302900E-04   2.235600E-05   1.000000E+00
   2.900000E+00   1.000000E-01   3.777500E-04   1.965600E-05   1.000000E+00
   3.100000E+00   1.000000E-01   3.127300E-04   1.576300E-05   1.000000E+00
   3.300000E+00   1.000000E-01   2.620700E-04   1.326800E-05   1.000000E+00
   3.500000E+00   1.000000E-01   2.249800E-04   1.149400E-05   1.000000E+00
   3.700000E+00   1.000000E-01   1.921200E-04   1.024200E-05   1.000000E+00
   3.900000E+00   1.000000E-01   1.641000E-04   8.962000E-06   1.000000E+00
   4.100000E+00   1.000000E-01   1.423700E-04   7.610100E-06   1.000000E+00
   4.300000E+00   1.000000E-01   1.229700E-04   6.675300E-06   1.000000E+00
   4.500000E+00   1.000000E-01   1.073500E-04   5.618400E-06   1.000000E+00
   4.700000E+00   1.000000E-01   9.849900E-05   4.990200E-06   1.000000E+00
   4.900000E+00   1.000000E-01   9.190300E-05   4.700200E-06   1.000000E+00
   5.100000E+00   1.000000E-01   8.366800E-05   4.330200E-06   1.000000E+00
   5.300000E+00   1.000000E-01   7.697900E-05   4.161800E-06   1.000000E+00
   5.500000E+00   1.000000E-01   7.030000E-05   4.093000E-06   1.000000E+00
   5.700000E+00   1.000000E-01   6.657900E-05   3.607700E-06   1.000000E+00
   5.900000E+00   1.000000E-01   6.082900E-05   4.120800E-06   1.000000E+00
   6.100000E+00   1.000000E-01   5.435700E-05   3.050600E-06   1.000000E+00
   6.300000E+00   1.000000E-01   5.198900E-05   2.818100E-06   1.000000E+00
   6.500000E+00   1.000000E-01   5.161500E-05   3.363700E-06   1.000000E+00
   6.700000E+00   1.000000E-01   4.883200E-05   3.324200E-06   1.000000E+00
   6.900000E+00   1.000000E-01   4.357500E-05   2.964900E-06   1.000000E+00
   7.100000E+00   1.000000E-01   4.102000E-05   2.207900E-06   1.000000E+00
   7.300000E+00   1.000000E-01   3.915800E-05   2.087500E-06   1.000000E+00
   7.500000E+00   1.000000E-01   3.637300E-05   2.611800E-06   1.000000E+00
   7.700000E+00   1.000000E-01   3.371400E-05   2.279100E-06   1.000000E+00
   7.900000E+00   1.000000E-01   3.254500E-05   2.080500E-06   1.000000E+00
   8.100000E+00   1.000000E-01   3.213200E-05   1.759200E-06   1.000000E+00
   8.300000E+00   1.000000E-01   3.414400E-05   1.886300E-06   1.000000E+00
   8.500000E+00   1.000000E-01   3.074100E-05   1.855900E-06   1.000000E+00
   8.700000E+00   1.000000E-01   3.049400E-05   1.896400E-06   1.000000E+00
   8.900000E+00   1.000000E-01   2.895500E-05   1.835500E-06   1.000000E+00
   9.100000E+00   1.000000E-01   2.893500E-05   1.656700E-06   1.000000E+00
   9.300000E+00   1.000000E-01   2.902700E-05   2.373900E-06   1.000000E+00
   9.500000E+00   1.000000E-01   2.713800E-05   2.865800E-06   1.000000E+00
   9.700000E+00   1.000000E-01   2.744800E-05   2.807500E-06   1.000000E+00
   9.900000E+00   1.000000E-01   2.617300E-05   1.861700E-06   1.000000E+00
   1.010000E+01   1.000000E-01   2.573300E-05   1.706300E-06   1.000000E+00
   1.030000E+01   1.000000E-01   2.547000E-05   2.269600E-06   1.000000E+00
   1.050000E+01   1.000000E-01   2.363300E-05   2.044100E-06   1.000000E+00
   1.070000E+01   1.000000E-01   2.519600E-05   1.371900E-06   1.000000E+00
   1.090000E+01   1.000000E-01   2.390000E-05   1.488800E-06   1.000000E+00
   1.110000E+01   1.000000E-01   2.294800E-05   1.243700E-06   1.000000E+00
   1.130000E+01   1.000000E-01   2.238400E-05   1.565100E-06   1.000000E+00
   1.150000E+01   1.000000E-01   2.300100E-05   2.261000E-06   1.000000E+00
   1.170000E+01   1.000000E-01   2.177600E-05   1.631000E-06   1.000000E+00
   1.190000E+01   1.000000E-01   1.968900E-05   1.412100E-06   1.000000E+00
   1.210000E+01   1.000000E-01   2.054200E-05   1.518400E-06   1.000000E+00
   1.230000E+01   1.000000E-01   2.107400E-05   1.785700E-06   1.000000E+00
   1.250000E+01   1.000000E-01   1.871800E-05   1.530300E-06   1.000000E+00
   1.270000E+01   1.000000E-01   1.866600E-05   9.771301E-07   1.000000E+00
   1.290000E+01   1.000000E-01   1.842600E-05   1.302700E-06   1.000000E+00
   1.310000E+01   1.000000E-01   1.945100E-05   1.196900E-06   1.000000E+00
   1.330000E+01   1.000000E-01   1.811000E-05   1.009800E-06   1.000000E+00
   1.350000E+01   1.000000E-01   1.730600E-05   1.393500E-06   1.000000E+00
   1.370000E+01   1.000000E-01   1.857200E-05   1.601800E-06   1.000000E+00
   1.390000E+01   1.000000E-01   2.034100E-05   1.561900E-06   1.000000E+00
   1.410000E+01   1.000000E-01   2.009400E-05   2.260300E-06   1.000000E+00
   1.430000E+01   1.000000E-01   2.114600E-05   2.395200E-06   1.000000E+00
   1.450000E+01   1.000000E-01   2.616800E-05   1.577000E-06   1.000000E+00
   1.470000E+01   1.000000E-01   2.753900E-05   1.752600E-06   1.000000E+00
   1.490000E+01   1.000000E-01   2.780000E-05   2.219000E-06   1.000000E+00
   1.510000E+01   1.000000E-01   3.143700E-05   1.751900E-06   1.000000E+00
   1.530000E+01   1.000000E-01   3.253200E-05   1.728300E-06   1.000000E+00
   1.550000E+01   1.000000E-01   3.573300E-05   3.815700E-06   1.000000E+00
   1.570000E+01   1.000000E-01   3.720700E-05   4.026800E-06   1.000000E+00
   1.590000E+01   1.000000E-01   3.592800E-05   4.204400E-06   1.000000E+00
   1.610000E+01   1.000010E-01   3.827900E-05   5.186300E-06   1.000000E+00
   1.630000E+01   1.000000E-01   4.233300E-05   8.509700E-06   1.000000E+00
   1.650000E+01   1.000000E-01   4.927400E-05   9.471500E-06   1.000000E+00
   1.670000E+01   1.000000E-01   5.582300E-05   1.302100E-05   1.000000E+00
   1.690000E+01   1.000000E-01   7.241500E-05   1.827100E-05   1.000000E+00
   1.710000E+01   1.000000E-01   9.504901E-05   2.839300E-05   1.000000E+00
   1.730000E+01   1.000000E-01   1.120400E-04   3.981300E-05   1.000000E+00
   1.750000E+01   1.000000E-01   1.242400E-04   4.801600E-05   1.000000E+00
   1.770000E+01   1.000000E-01   1.208700E-04   5.299300E-05   1.000000E+00
   1.790000E+01   1.000000E-01   1.035400E-04   5.102100E-05   1.000000E+00
   1.810000E+01   1.000000E-01   7.774600E-05   4.306800E-05   1.000000E+00
   1.830000E+01   1.000000E-01   5.185000E-05   3.218700E-05   1.000000E+00
   1.850000E+01   1.000000E-01   3.282800E-05   2.055700E-05   1.000000E+00
   1.870000E+01   1.000000E-01   2.266500E-05   1.245200E-05   1.000000E+00
   1.890000E+01   1.000000E-01   1.411000E-05   7.251700E-06   1.000000E+00
   1.910000E+01   1.000000E-01   9.583000E-06   4.160800E-06   1.000000E+00
   1.930000E+01   1.000000E-01   8.987900E-06   2.827600E-06   1.000000E+00
   1.950000E+01   1.000000E-01   7.465000E-06   2.089900E-06   1.000000E+00
   1.970000E+01   1.000000E-01   6.720100E-06   2.280900E-06   1.000000E+00
   1.990000E+01   1.000000E-01   4.003700E-06   1.483500E-06   1.000000E+00
   2.010000E+01   1.000000E-01   2.107600E-06   4.339600E-07   1.000000E+00
# reference:
#   author: S.Matsuyama, T.Ito, M.Baba, N.Ito, H.Ide, T.Okubo,  N.Hirakawa
#   title: -Measurements of double differential neutron emission  cross sections of Nb-93 and Bi-209.
#   journal: Conf: JAERI-M Reports, No.92-027, p.309 (1992)
