# header: 
#   title: Ga0(n,res) resonance parameter
#   source: EXFOR
#   user: Arjan Koning
#   date: 2025-12-18
#   format: YANDF-0.4
# exfor: 
#   author: Ohkubo
#   year: 1990
#   subentry: 218610041
#   X4 reaction: 31-GA-0(N,0),,EN
#   X4 source: IAEA-NDS C5 file, database version 2023-08-08
#   X4 link: https://nds.iaea.org/EXFOR/218610041
# target: 
#   Z: 31
#   A: 0
#   nuclide: Ga0
# reaction: 
#   type: (n,res)
#   ENDF_MF: 402
#   ENDF_MT: 151
#   quantity: 
#     type: resonance parameter
#   datablock: 
#     columns: 5
#     entries: 29
##       E             dE             par           dpar       Normalization
##     [eV]           [eV]            []             []             []
   1.366600E-03   1.000000E-06   1.366600E+03   1.000000E+00   1.000000E+00
   3.854200E-03   4.400000E-06   3.854200E+03   4.400000E+00   1.000000E+00
   4.341300E-03   5.300000E-06   4.341300E+03   5.300000E+00   1.000000E+00
   4.388700E-03   5.400000E-06   4.388700E+03   5.400000E+00   1.000000E+00
   4.584000E-03   5.700000E-06   4.584000E+03   5.700000E+00   1.000000E+00
   4.792000E-03   6.100000E-06   4.792000E+03   6.100000E+00   1.000000E+00
   5.297000E-03   7.100000E-06   5.297000E+03   7.100000E+00   1.000000E+00
   5.484000E-03   7.500000E-06   5.484000E+03   7.500000E+00   1.000000E+00
   5.562000E-03   7.700000E-06   5.562000E+03   7.700000E+00   1.000000E+00
   5.580000E-03   7.700000E-06   5.580000E+03   7.700000E+00   1.000000E+00
   5.853000E-03   8.300000E-06   5.853000E+03   8.300000E+00   1.000000E+00
   6.024000E-03   8.600000E-06   6.024000E+03   8.600000E+00   1.000000E+00
   6.400000E-03   9.400000E-06   6.400000E+03   9.400000E+00   1.000000E+00
   6.715000E-03   1.000000E-05   6.715000E+03   1.000000E+01   1.000000E+00
   6.775000E-03   1.000000E-05   6.775000E+03   1.000000E+01   1.000000E+00
   7.237000E-03   1.100000E-05   7.237000E+03   1.100000E+01   1.000000E+00
   7.283000E-03   1.100000E-05   7.283000E+03   1.100000E+01   1.000000E+00
   7.388000E-03   1.200000E-05   7.388000E+03   1.200000E+01   1.000000E+00
   7.412000E-03   1.200000E-05   7.412000E+03   1.200000E+01   1.000000E+00
   7.470000E-03   1.200000E-05   7.470000E+03   1.200000E+01   1.000000E+00
   7.781000E-03   1.300000E-05   7.781000E+03   1.300000E+01   1.000000E+00
   8.077000E-03   1.300000E-05   8.077000E+03   1.300000E+01   1.000000E+00
   8.350000E-03   1.400000E-05   8.350000E+03   1.400000E+01   1.000000E+00
   8.696000E-03   1.500000E-05   8.696000E+03   1.500000E+01   1.000000E+00
   9.170000E-03   1.600000E-05   9.170000E+03   1.600000E+01   1.000000E+00
   9.424000E-03   1.700000E-05   9.424000E+03   1.700000E+01   1.000000E+00
   9.636000E-03   1.700000E-05   9.636000E+03   1.700000E+01   1.000000E+00
   1.015700E-02   1.900000E-05   1.015700E+04   1.900000E+01   1.000000E+00
   1.042000E-02   2.000000E-05   1.042000E+04   2.000000E+01   1.000000E+00
# reference:
#   author: M.Ohkubo
#   title: Neutron transmission measurements on gallium in the  resonance region
#   journal: Rept: JAERI-M Reports, No.90-213 (1990)
