# header: 
#   title: Sn120(n,res) resonance parameter
#   source: EXFOR
#   user: Arjan Koning
#   date: 2025-12-18
#   format: YANDF-0.4
# exfor: 
#   author: Koehler
#   year: 2001
#   subentry: 139090065
#   X4 reaction: 50-SN-120(N,G),,WID
#   X4 source: IAEA-NDS C5 file, database version 2023-08-08
#   X4 link: https://nds.iaea.org/EXFOR/139090065
# target: 
#   Z: 50
#   A: 120
#   nuclide: Sn120
# reaction: 
#   type: (n,res)
#   ENDF_MF: 402
#   ENDF_MT: 151
#   quantity: 
#     type: resonance parameter
#   datablock: 
#     columns: 5
#     entries: 130
##       E             dE             par           dpar       Normalization
##     [eV]           [eV]            []             []             []
   3.643000E-04   0.000000E+00   1.250000E-01   1.600000E-02   1.000000E+00
   4.261000E-04   0.000000E+00   2.460000E-01   2.000000E-02   1.000000E+00
   9.485999E-04   0.000000E+00   4.429000E-02   7.200000E-04   1.000000E+00
   1.713400E-03   0.000000E+00   9.030001E-02   1.600000E-03   1.000000E+00
   3.118400E-03   0.000000E+00   3.239000E-02   6.700000E-04   1.000000E+00
   3.848900E-03   0.000000E+00   8.560000E-02   4.400000E-03   1.000000E+00
   4.355600E-03   0.000000E+00   3.143000E-02   9.000000E-04   1.000000E+00
   5.022100E-03   0.000000E+00   1.048000E-01   5.700000E-03   1.000000E+00
   5.067200E-03   0.000000E+00   1.324000E-01   2.700000E-03   1.000000E+00
   6.676800E-03   0.000000E+00   2.260000E-01   3.500000E-02   1.000000E+00
   6.978300E-03   0.000000E+00   6.450000E-02   2.800000E-03   1.000000E+00
   7.118500E-03   0.000000E+00   3.670000E-02   2.800000E-03   1.000000E+00
   7.306000E-03   0.000000E+00   3.360000E-02   1.500000E-03   1.000000E+00
   7.499500E-03   0.000000E+00   6.740001E-02   3.900000E-03   1.000000E+00
   8.164200E-03   0.000000E+00   8.010000E-02   2.400000E-03   1.000000E+00
   8.611901E-03   0.000000E+00   7.600001E-02   1.300000E-02   1.000000E+00
   8.667099E-03   0.000000E+00   3.410000E-02   3.200000E-03   1.000000E+00
   8.947699E-03   0.000000E+00   3.050000E-02   2.400000E-03   1.000000E+00
   9.548900E-03   0.000000E+00   6.510000E-02   2.300000E-03   1.000000E+00
   1.032320E-02   0.000000E+00   7.470000E-02   5.300000E-03   1.000000E+00
   1.088580E-02   0.000000E+00   7.470000E-02   2.500000E-03   1.000000E+00
   1.128430E-02   0.000000E+00   6.040001E-02   2.100000E-03   1.000000E+00
   1.148890E-02   0.000000E+00   3.010000E-02   2.500000E-03   1.000000E+00
   1.166270E-02   0.000000E+00   8.610000E-02   7.300000E-03   1.000000E+00
   1.179090E-02   0.000000E+00   3.440000E-02   2.600000E-03   1.000000E+00
   1.287080E-02   0.000000E+00   8.390000E-02   3.300000E-03   1.000000E+00
   1.305270E-02   0.000000E+00   3.010000E-02   2.700000E-03   1.000000E+00
   1.426340E-02   0.000000E+00   8.410000E-02   7.600000E-03   1.000000E+00
   1.473180E-02   0.000000E+00   7.410000E-02   7.700000E-03   1.000000E+00
   1.614450E-02   0.000000E+00   7.430001E-02   4.700000E-03   1.000000E+00
   1.660780E-02   0.000000E+00   8.330001E-02   3.200000E-03   1.000000E+00
   1.671220E-02   0.000000E+00   5.620001E-02   4.900000E-03   1.000000E+00
   1.718370E-02   0.000000E+00   6.740001E-02   3.200000E-03   1.000000E+00
   1.734900E-02   0.000000E+00   4.660000E-02   3.300000E-03   1.000000E+00
   1.743730E-02   0.000000E+00   1.110000E-01   1.000000E-02   1.000000E+00
   1.802920E-02   0.000000E+00   3.870000E-02   3.600000E-03   1.000000E+00
   1.823080E-02   0.000000E+00   7.390001E-02   5.400000E-03   1.000000E+00
   1.881440E-02   0.000000E+00   5.480000E-02   5.900000E-03   1.000000E+00
   1.894990E-02   0.000000E+00   4.640000E-02   4.000000E-03   1.000000E+00
   1.927130E-02   0.000000E+00   4.310000E-02   4.800000E-03   1.000000E+00
   1.930740E-02   0.000000E+00   7.400000E-02   4.500000E-03   1.000000E+00
   1.963410E-02   0.000000E+00   4.430000E-02   7.500000E-03   1.000000E+00
   2.097660E-02   0.000000E+00   4.000000E-02   4.000000E-03   1.000000E+00
   2.141760E-02   0.000000E+00   7.740001E-02   9.800000E-03   1.000000E+00
   2.187640E-02   0.000000E+00   7.320000E-02   5.500000E-03   1.000000E+00
   2.219780E-02   0.000000E+00   4.640000E-02   3.000000E-03   1.000000E+00
   2.267670E-02   0.000000E+00   1.766000E-01   9.000000E-03   1.000000E+00
   2.273440E-02   0.000000E+00   5.730000E-02   4.300000E-03   1.000000E+00
   2.304020E-02   0.000000E+00   4.030000E-02   6.200000E-03   1.000000E+00
   2.331450E-02   0.000000E+00   8.520000E-02   4.300000E-03   1.000000E+00
   2.360080E-02   0.000000E+00   7.090001E-02   6.100000E-03   1.000000E+00
   2.366930E-02   0.000000E+00   4.540000E-02   5.500000E-03   1.000000E+00
   2.404360E-02   0.000000E+00   8.160000E-02   4.200000E-03   1.000000E+00
   2.445570E-02   0.000000E+00   5.370000E-02   3.700000E-03   1.000000E+00
   2.483450E-02   0.000000E+00   5.930000E-02   7.000000E-03   1.000000E+00
   2.518180E-02   0.000000E+00   4.930000E-02   3.800000E-03   1.000000E+00
   2.552960E-02   0.000000E+00   6.770000E-02   6.900000E-03   1.000000E+00
   2.600040E-02   0.000000E+00   7.340001E-02   4.200000E-03   1.000000E+00
   2.622430E-02   0.000000E+00   4.690000E-02   6.800000E-03   1.000000E+00
   2.629310E-02   0.000000E+00   5.180000E-02   4.000000E-03   1.000000E+00
   2.649160E-02   0.000000E+00   8.820000E-02   7.100000E-03   1.000000E+00
   2.714430E-02   0.000000E+00   6.400000E-02   4.400000E-03   1.000000E+00
   2.740670E-02   0.000000E+00   5.480000E-02   4.400000E-03   1.000000E+00
   2.782700E-02   0.000000E+00   6.510000E-02   8.600000E-03   1.000000E+00
   2.796030E-02   0.000000E+00   2.800000E-02   6.100000E-03   1.000000E+00
   2.825840E-02   0.000000E+00   4.090000E-02   5.900000E-03   1.000000E+00
   2.852410E-02   0.000000E+00   1.403000E-01   6.900000E-03   1.000000E+00
   2.861100E-02   0.000000E+00   1.890000E-02   5.000000E-03   1.000000E+00
   2.917400E-02   0.000000E+00   6.010000E-02   4.900000E-03   1.000000E+00
   2.933410E-02   0.000000E+00   1.920000E-02   5.000000E-03   1.000000E+00
   2.966960E-02   0.000000E+00   7.500000E-02   1.200000E-02   1.000000E+00
   3.062190E-02   0.000000E+00   2.290000E-02   6.200000E-03   1.000000E+00
   3.171560E-02   0.000000E+00   5.590000E-02   7.600000E-03   1.000000E+00
   3.207610E-02   0.000000E+00   7.500000E-02   1.400000E-02   1.000000E+00
   3.271550E-02   0.000000E+00   3.550000E-02   8.800000E-03   1.000000E+00
   3.281180E-02   0.000000E+00   7.990000E-02   9.000000E-03   1.000000E+00
   3.296980E-02   0.000000E+00   7.930001E-02   8.200000E-03   1.000000E+00
   3.325940E-02   0.000000E+00   6.800000E-02   1.300000E-02   1.000000E+00
   3.346850E-02   0.000000E+00   6.710000E-02   9.100000E-03   1.000000E+00
   3.504700E-02   0.000000E+00   2.550000E-02   7.500000E-03   1.000000E+00
   3.512020E-02   0.000000E+00   5.500000E-02   1.300000E-02   1.000000E+00
   3.516580E-02   0.000000E+00   9.100001E-02   1.700000E-02   1.000000E+00
   3.598050E-02   0.000000E+00   9.500001E-02   1.800000E-02   1.000000E+00
   3.605450E-02   0.000000E+00   4.800000E-02   1.300000E-02   1.000000E+00
   3.646500E-02   0.000000E+00   4.900000E-02   1.000000E-02   1.000000E+00
   3.762600E-02   0.000000E+00   7.300001E-02   1.500000E-02   1.000000E+00
   3.790310E-02   0.000000E+00   6.200000E-02   1.200000E-02   1.000000E+00
   3.793840E-02   0.000000E+00   7.000001E-02   1.300000E-02   1.000000E+00
   3.816520E-02   0.000000E+00   7.700001E-02   1.500000E-02   1.000000E+00
   3.857960E-02   0.000000E+00   6.110000E-02   8.600000E-03   1.000000E+00
   3.886710E-02   0.000000E+00   3.300000E-02   9.900000E-03   1.000000E+00
   3.927500E-02   0.000000E+00   6.400000E-02   1.300000E-02   1.000000E+00
   4.002830E-02   0.000000E+00   7.560001E-02   9.100000E-03   1.000000E+00
   4.014020E-02   0.000000E+00   3.300000E-02   1.000000E-02   1.000000E+00
   4.088040E-02   0.000000E+00   8.800001E-02   1.800000E-02   1.000000E+00
   4.099410E-02   0.000000E+00   7.500000E-02   1.900000E-02   1.000000E+00
   4.247240E-02   0.000000E+00   6.300000E-02   9.900000E-03   1.000000E+00
   4.268990E-02   0.000000E+00   8.200000E-02   1.300000E-02   1.000000E+00
   4.348810E-02   0.000000E+00   3.220000E-02   8.700000E-03   1.000000E+00
   4.381180E-02   0.000000E+00   6.100000E-02   1.100000E-02   1.000000E+00
   4.413060E-02   0.000000E+00   7.600001E-02   1.800000E-02   1.000000E+00
   4.459380E-02   0.000000E+00   8.400001E-02   1.200000E-02   1.000000E+00
   4.548520E-02   0.000000E+00   3.300000E-02   1.000000E-02   1.000000E+00
   4.554320E-02   0.000000E+00   1.620000E-01   1.700000E-02   1.000000E+00
   4.746970E-02   0.000000E+00   4.700000E-02   1.400000E-02   1.000000E+00
   4.756650E-02   0.000000E+00   7.200000E-02   2.000000E-02   1.000000E+00
   4.769130E-02   0.000000E+00   4.700000E-02   1.400000E-02   1.000000E+00
   4.811780E-02   0.000000E+00   4.900000E-02   1.400000E-02   1.000000E+00
   4.837520E-02   0.000000E+00   7.900000E-02   1.200000E-02   1.000000E+00
   4.877680E-02   0.000000E+00   1.030000E-01   2.500000E-02   1.000000E+00
   4.930180E-02   0.000000E+00   2.650000E-02   9.100000E-03   1.000000E+00
   4.933670E-02   0.000000E+00   9.400000E-02   2.200000E-02   1.000000E+00
   4.946650E-02   0.000000E+00   8.200000E-02   1.400000E-02   1.000000E+00
   5.011990E-02   0.000000E+00   8.300000E-02   2.100000E-02   1.000000E+00
   5.037090E-02   0.000000E+00   4.800000E-02   1.400000E-02   1.000000E+00
   5.045880E-02   0.000000E+00   7.000001E-02   1.800000E-02   1.000000E+00
   5.065690E-02   0.000000E+00   7.000001E-02   1.300000E-02   1.000000E+00
   5.109080E-02   0.000000E+00   8.200000E-02   1.700000E-02   1.000000E+00
   5.131860E-02   0.000000E+00   8.400001E-02   1.300000E-02   1.000000E+00
   5.189860E-02   0.000000E+00   9.500001E-02   2.200000E-02   1.000000E+00
   5.208460E-02   0.000000E+00   7.200000E-02   1.700000E-02   1.000000E+00
   5.213380E-02   0.000000E+00   9.900001E-02   2.600000E-02   1.000000E+00
   5.268080E-02   0.000000E+00   7.600001E-02   1.300000E-02   1.000000E+00
   5.300570E-02   0.000000E+00   7.500000E-02   1.400000E-02   1.000000E+00
   5.313760E-02   0.000000E+00   4.000000E-02   1.400000E-02   1.000000E+00
   5.344920E-02   0.000000E+00   8.700000E-02   1.500000E-02   1.000000E+00
   5.365530E-02   0.000000E+00   7.300001E-02   1.900000E-02   1.000000E+00
   5.422250E-02   0.000000E+00   5.100000E-02   1.200000E-02   1.000000E+00
   5.440860E-02   0.000000E+00   3.000000E-02   1.000000E-02   1.000000E+00
   5.492840E-02   0.000000E+00   9.500001E-02   2.600000E-02   1.000000E+00
# reference:
#   author: P.E.Koehler,J.A.Harvey,R.R.Winters,K.H.Guber, R.R.Spencer
#   title: High-resolution neutron capture and transmission measurements for 116,120Sn, and their stellar neutron-capture cross sections at s-process temperatures
#   journal: Jour: Physical Review, Part C, Nuclear Physics, Vol.64, p.065802 (2001)
