# header: 
#   title: Rb85(n,res) resonance parameter
#   source: EXFOR
#   user: Arjan Koning
#   date: 2025-12-01
#   format: YANDF-0.4
# exfor: 
#   author: Beer
#   year: 1989
#   subentry: 131770044
#   X4 reaction: 37-RB-85(N,G),,WID
#   X4 source: IAEA-NDS C5 file, database version 2023-08-08
#   X4 link: https://nds.iaea.org/EXFOR/131770044
# target: 
#   Z: 37
#   A: 85
#   nuclide: Rb85
# reaction: 
#   type: (n,res)
#   ENDF_MF: 402
#   ENDF_MT: 151
#   quantity: 
#     type: resonance parameter
#   datablock: 
#     columns: 5
#     entries: 21
##       E             dE             par           dpar       Normalization
##     [eV]           [eV]            []             []             []
   5.266700E-04   0.000000E+00   2.387000E-01   1.100000E-03   1.000000E+00
   1.041500E-03   0.000000E+00   2.106000E-01   1.700000E-03   1.000000E+00
   1.202800E-03   0.000000E+00   2.211000E-01   2.000000E-03   1.000000E+00
   1.408000E-03   0.000000E+00   2.125000E-01   1.600000E-03   1.000000E+00
   1.670000E-03   0.000000E+00   2.300000E-01   8.100000E-03   1.000000E+00
   1.983800E-03   0.000000E+00   1.822000E-01   1.400000E-03   1.000000E+00
   2.082200E-03   0.000000E+00   2.736000E-01   9.200000E-03   1.000000E+00
   2.398400E-03   0.000000E+00   2.286000E-01   1.000000E-03   1.000000E+00
   2.502700E-03   0.000000E+00   1.666000E-01   3.200000E-03   1.000000E+00
   2.582800E-03   0.000000E+00   1.890000E-01   2.000000E-03   1.000000E+00
   2.994300E-03   0.000000E+00   2.293000E-01   1.400000E-03   1.000000E+00
   3.007800E-03   0.000000E+00   1.502000E-01   1.200000E-03   1.000000E+00
   5.149000E-03   0.000000E+00   2.207000E-01   6.100000E-03   1.000000E+00
   5.599200E-03   0.000000E+00   1.902000E-01   5.400000E-03   1.000000E+00
   9.303000E-03   0.000000E+00   3.351000E-01   2.070000E-02   1.000000E+00
   9.351901E-03   0.000000E+00   5.066000E-01   1.190000E-02   1.000000E+00
   1.547600E-02   0.000000E+00   4.654000E-01   1.660000E-02   1.000000E+00
   1.591400E-02   0.000000E+00   4.421000E-01   1.740000E-02   1.000000E+00
   1.612900E-02   0.000000E+00   4.793000E-01   2.160000E-02   1.000000E+00
   1.619800E-02   0.000000E+00   4.300000E-01   1.990000E-02   1.000000E+00
   1.907700E-02   0.000000E+00   5.952001E-01   1.790000E-02   1.000000E+00
# reference:
#   author: H.BEER,R.L.MACKLIN
#   title: MEASUREMENT OF THE 85RB AND 87RB CAPTURE CROSS SECTIONS  FOR S-PROCESS STUDIES
#   journal: Jour: Astrophysical Journal, Vol.339, p.962 (1989)
