# header: 
#   title: Rb85(n,res) resonance parameter
#   source: EXFOR
#   user: Arjan Koning
#   date: 2025-08-01
#   format: YANDF-0.2
# exfor: 
#   author: Beer
#   year: 1989
#   subentry: 131770045
#   X4 reaction: 37-RB-85(N,TOT),,WID
#   X4 source: IAEA-NDS C5 file, database version 2023-08-08
#   X4 link: https://nds.iaea.org/EXFOR/131770045
# target: 
#   Z: 37
#   A: 85
#   nuclide: Rb85
# reaction: 
#   type: (n,res)
#   ENDF_MF: 402
#   ENDF_MT: 151
#   quantity: 
#     type: resonance parameter
#   datablock: 
#     columns: 5
#     entries: 21
##       E             dE             par           dpar       Normalization
##     [eV]           [eV]            []             []             []
   5.266700E-04   0.000000E+00   1.670000E+00   6.300000E-03   1.000000E+00
   1.041500E-03   0.000000E+00   1.030000E+00   4.800000E-03   1.000000E+00
   1.202800E-03   0.000000E+00   1.450000E+00   1.000000E-02   1.000000E+00
   1.408000E-03   0.000000E+00   5.280000E+00   5.900000E-02   1.000000E+00
   1.670000E-03   0.000000E+00   6.600000E-01   1.900000E-03   1.000000E+00
   1.983800E-03   0.000000E+00   1.440000E+00   9.600000E-03   1.000000E+00
   2.082200E-03   0.000000E+00   5.840000E-01   5.000000E-03   1.000000E+00
   2.398400E-03   0.000000E+00   6.730000E+00   4.500000E-02   1.000000E+00
   2.502700E-03   0.000000E+00   6.040000E-01   2.700000E-03   1.000000E+00
   2.582800E-03   0.000000E+00   1.820000E+00   1.800000E-02   1.000000E+00
   2.994300E-03   0.000000E+00   2.910000E+00   2.200000E-02   1.000000E+00
   3.007800E-03   0.000000E+00   2.110000E+00   1.900000E-02   1.000000E+00
   5.149000E-03   0.000000E+00   2.340000E+00   6.600000E-02   1.000000E+00
   5.599200E-03   0.000000E+00   2.880000E+00   8.400000E-02   1.000000E+00
   9.303000E-03   0.000000E+00   2.420000E+00   1.100000E-01   1.000000E+00
   9.351901E-03   0.000000E+00   8.480000E+00   2.600000E-01   1.000000E+00
   1.547600E-02   0.000000E+00   1.490000E+01   7.800000E-01   1.000000E+00
   1.591400E-02   0.000000E+00   1.290000E+01   6.800000E-01   1.000000E+00
   1.612900E-02   0.000000E+00   1.300000E+01   7.900000E-01   1.000000E+00
   1.619800E-02   0.000000E+00   1.450000E+01   9.500000E-01   1.000000E+00
   1.907700E-02   0.000000E+00   1.140000E+01   4.200000E-01   1.000000E+00
# reference:
#   author: H.BEER,R.L.MACKLIN
#   title: MEASUREMENT OF THE 85RB AND 87RB CAPTURE CROSS SECTIONS  FOR S-PROCESS STUDIES
#   journal: Jour: Astrophysical Journal, Vol.339, p.962 (1989)
