# header: 
#   title: Rb85(n,res) resonance parameter
#   source: EXFOR
#   user: Arjan Koning
#   date: 2025-10-25
#   format: YANDF-0.4
# exfor: 
#   author: Ohkubo
#   year: 1984
#   subentry: 227640064
#   X4 reaction: 37-RB-85(N,0),,L
#   X4 source: IAEA-NDS C5 file, database version 2023-08-08
#   X4 link: https://nds.iaea.org/EXFOR/227640064
# target: 
#   Z: 37
#   A: 85
#   nuclide: Rb85
# reaction: 
#   type: (n,res)
#   ENDF_MF: 402
#   ENDF_MT: 151
#   quantity: 
#     type: resonance parameter
#   datablock: 
#     columns: 5
#     entries: 28
##       E             dE             par           dpar       Normalization
##     [eV]           [eV]            []             []             []
   5.264001E-04   2.000000E-07   0.000000E+00   0.000000E+00   1.000000E+00
   6.548000E-04   2.000000E-07   0.000000E+00   0.000000E+00   1.000000E+00
   1.041000E-03   3.000000E-07   0.000000E+00   0.000000E+00   1.000000E+00
   1.202500E-03   4.000000E-07   0.000000E+00   0.000000E+00   1.000000E+00
   1.408500E-03   4.000000E-07   0.000000E+00   0.000000E+00   1.000000E+00
   1.670200E-03   5.000000E-07   0.000000E+00   0.000000E+00   1.000000E+00
   1.984200E-03   6.000000E-07   0.000000E+00   0.000000E+00   1.000000E+00
   2.082700E-03   6.000000E-07   0.000000E+00   0.000000E+00   1.000000E+00
   2.398500E-03   7.000000E-07   0.000000E+00   0.000000E+00   1.000000E+00
   2.583900E-03   8.000000E-07   0.000000E+00   0.000000E+00   1.000000E+00
   2.995000E-03   9.000000E-07   0.000000E+00   0.000000E+00   1.000000E+00
   3.008000E-03   9.000000E-07   0.000000E+00   0.000000E+00   1.000000E+00
   3.209700E-03   1.000000E-06   0.000000E+00   0.000000E+00   1.000000E+00
   4.020500E-03   1.300000E-06   0.000000E+00   0.000000E+00   1.000000E+00
   4.211200E-03   1.400000E-06   0.000000E+00   0.000000E+00   1.000000E+00
   4.875000E-03   1.700000E-06   0.000000E+00   0.000000E+00   1.000000E+00
   5.600000E-03   2.000000E-06   0.000000E+00   0.000000E+00   1.000000E+00
   5.871000E-03   2.100000E-06   0.000000E+00   0.000000E+00   1.000000E+00
   7.172000E-03   2.700000E-06   0.000000E+00   0.000000E+00   1.000000E+00
   9.149000E-03   3.700000E-06   0.000000E+00   0.000000E+00   1.000000E+00
   9.358000E-03   3.900000E-06   0.000000E+00   0.000000E+00   1.000000E+00
   9.780000E-03   4.100000E-06   0.000000E+00   0.000000E+00   1.000000E+00
   1.013500E-02   4.300000E-06   0.000000E+00   0.000000E+00   1.000000E+00
   1.096400E-02   4.800000E-06   0.000000E+00   0.000000E+00   1.000000E+00
   1.248300E-02   5.700000E-06   0.000000E+00   0.000000E+00   1.000000E+00
   1.279000E-02   5.900000E-06   0.000000E+00   0.000000E+00   1.000000E+00
   1.355000E-02   6.400000E-06   0.000000E+00   0.000000E+00   1.000000E+00
   1.664400E-02   8.500000E-06   0.000000E+00   0.000000E+00   1.000000E+00
# reference:
#   author: M.OHKUBO,M.MIZUMOTO,Y.KAWARASAKI
#   title: Neutron resonance parameters of Rubidium-85 and Rubidium-87
#   journal: Jour: Jour. of Nuclear Science and Technology, Vol.21, p.254 (1984)
