# header: 
#   title: Bi209(n,xn) emission spectrum at  7.750000E+00 MeV
#   source: EXFOR
#   user: Arjan Koning
#   date: 2025-10-25
#   format: YANDF-0.4
# exfor: 
#   author: Schmidt
#   year: 1987
#   subentry: 32001040
#   X4 reaction: 83-BI-209(N,X)0-NN-1,,DE
#   X4 source: IAEA-NDS C5 file, database version 2023-08-08
#   X4 link: https://nds.iaea.org/EXFOR/32001040
# target: 
#   Z: 83
#   A: 209
#   nuclide: Bi209
# reaction: 
#   type: (n,xn)
#   ENDF_MF: 5
#   ENDF_MT: 201
#   E-incident [MeV]:  7.750000E+00
#   quantity: 
#     type: emission spectrum
#   datablock: 
#     columns: 5
#     entries: 23
##     E-out         dE-out           xs             dxs       Normalization
##     [MeV]          [MeV]       [mb/MeV.sr]    [mb/MeV.sr]        []
   2.000000E+00   0.000000E+00   1.041000E-03   3.300000E-05   1.000000E+00
   2.250000E+00   0.000000E+00   9.130000E-04   3.500000E-05   1.000000E+00
   2.500000E+00   0.000000E+00   7.760000E-04   2.800000E-05   1.000000E+00
   2.750000E+00   0.000000E+00   6.540000E-04   2.200000E-05   1.000000E+00
   3.000000E+00   0.000000E+00   5.110000E-04   1.900000E-05   1.000000E+00
   3.250000E+00   0.000000E+00   3.980000E-04   1.700000E-05   1.000000E+00
   3.500000E+00   0.000000E+00   3.240000E-04   1.500000E-05   1.000000E+00
   3.750000E+00   0.000000E+00   2.570000E-04   1.300000E-05   1.000000E+00
   4.000000E+00   0.000000E+00   1.980000E-04   1.400000E-05   1.000000E+00
   4.250000E+00   0.000000E+00   1.530000E-04   1.300000E-05   1.000000E+00
   4.500000E+00   0.000000E+00   1.330000E-04   1.500000E-05   1.000000E+00
   4.750000E+00   0.000000E+00   1.190000E-04   1.900000E-05   1.000000E+00
   5.000000E+00   0.000000E+00   1.000000E-04   2.000000E-05   1.000000E+00
   5.250000E+00   0.000000E+00   7.700000E-05   1.900000E-05   1.000000E+00
   5.500000E+00   0.000000E+00   6.000000E-05   1.900000E-05   1.000000E+00
   5.750000E+00   0.000000E+00   4.400000E-05   1.900000E-05   1.000000E+00
   6.000000E+00   0.000000E+00   3.600000E-05   2.000000E-05   1.000000E+00
   6.250000E+00   0.000000E+00   3.400000E-05   1.900000E-05   1.000000E+00
   6.500000E+00   0.000000E+00   3.800000E-05   1.900000E-05   1.000000E+00
   6.750000E+00   0.000000E+00   4.600000E-05   2.100000E-05   1.000000E+00
   7.000000E+00   0.000000E+00   5.900000E-05   2.300000E-05   1.000000E+00
   7.250000E+00   0.000000E+00   7.400000E-05   3.000000E-05   1.000000E+00
   7.500000E+00   0.000000E+00   8.899999E-05   4.400000E-05   1.000000E+00
# reference:
#   author: D.Schmidt, D.Seeliger, G.N.Lovchikova, A.M.Trufanov
#   title: Measurement and status of neutron scattering on 6Li and 7Li between 6 and 14 MeV
#   journal: Jour: Nuclear Science and Engineering, Vol.96, p.159 (1987)
