# header: 
#   title: Nd145(n,res) resonance parameter
#   source: EXFOR
#   user: Arjan Koning
#   date: 2025-12-01
#   format: YANDF-0.4
# exfor: 
#   author: Barry
#   year: 2006
#   subentry: 14093019
#   X4 reaction: 60-ND-145(N,EL),,WID
#   X4 source: IAEA-NDS C5 file, database version 2023-08-08
#   X4 link: https://nds.iaea.org/EXFOR/14093019
# target: 
#   Z: 60
#   A: 145
#   nuclide: Nd145
# reaction: 
#   type: (n,res)
#   ENDF_MF: 402
#   ENDF_MT: 151
#   quantity: 
#     type: resonance parameter
#   datablock: 
#     columns: 5
#     entries: 28
##       E             dE             par           dpar       Normalization
##     [eV]           [eV]            []             []             []
   4.360000E-06   2.000000E-09   1.180000E-03   3.000000E-06   1.000000E+00
   4.255000E-05   4.000000E-09   3.721000E-01   7.000000E-04   1.000000E+00
   8.573000E-05   7.000000E-09   1.180000E-02   1.000000E-04   1.000000E+00
   9.615000E-05   7.000000E-09   6.600000E-03   1.000000E-04   1.000000E+00
   1.020800E-04   9.000000E-09   1.335000E-01   7.000000E-04   1.000000E+00
   1.036000E-04   9.000000E-09   3.260000E-02   3.000000E-04   1.000000E+00
   1.473000E-04   1.000000E-08   2.180000E-02   3.000000E-04   1.000000E+00
   1.516200E-04   1.000000E-08   1.370000E-02   4.000000E-04   1.000000E+00
   1.699400E-04   1.000000E-08   4.400000E-03   2.000000E-04   1.000000E+00
   1.894500E-04   1.000000E-08   3.600000E-02   1.000000E-03   1.000000E+00
   2.330000E-04   1.000000E-07   6.300000E-03   4.000000E-04   1.000000E+00
   2.425300E-04   3.000000E-08   6.200000E-02   1.000000E-03   1.000000E+00
   2.487000E-04   4.000000E-07   5.000000E-03   4.000000E-04   1.000000E+00
   2.592500E-04   3.000000E-08   8.200000E-02   1.000000E-03   1.000000E+00
   2.751900E-04   4.000000E-08   1.420000E-01   2.000000E-03   1.000000E+00
   3.067100E-04   3.000000E-07   5.000000E-02   5.000000E-03   1.000000E+00
   3.115400E-04   5.000000E-08   4.180000E-01   7.000000E-03   1.000000E+00
   3.187800E-04   5.000000E-07   1.050000E-02   8.000000E-04   1.000000E+00
   3.428900E-04   9.000000E-08   5.100000E-02   3.000000E-03   1.000000E+00
   3.761400E-04   4.000000E-07   1.000000E-02   1.000000E-03   1.000000E+00
   3.909800E-04   7.000000E-08   5.000000E-02   4.000000E-03   1.000000E+00
   3.978000E-04   5.000000E-07   2.800000E-02   3.000000E-03   1.000000E+00
   4.042100E-04   7.000000E-08   2.300000E-01   1.500000E-02   1.000000E+00
   4.064900E-04   1.000000E-07   1.200000E-01   9.000000E-03   1.000000E+00
   4.465800E-04   1.000000E-07   1.500000E-01   1.400000E-02   1.000000E+00
   4.651600E-04   1.000000E-07   8.000001E-01   1.000000E-02   1.000000E+00
   4.875900E-04   1.000000E-07   2.300000E-01   1.900000E-02   1.000000E+00
   4.978700E-04   1.000000E-07   4.550000E-01   9.000000E-03   1.000000E+00
# reference:
#   author: D.P.Barry,M.J.Trbovich,Y.Danon,R.C.Block,R.E.Slovacek,  G.Leinweber,J.A.Burke,N.J.Drindak
#   title: Neutron Transmission and Capture Measurements and  Resonance Parameter Analysis of Neodymium from 1  to 500 eV
#   journal: Jour: Nuclear Science and Engineering, Vol.153, p.8 (2006)
