# header: 
#   title: O16(n,res) resonance parameter
#   source: EXFOR
#   user: Arjan Koning
#   date: 2025-08-01
#   format: YANDF-0.2
# exfor: 
#   author: Cierjacks
#   year: 1980
#   subentry: 207420051
#   X4 reaction: 8-O-16(N,0),,EN
#   X4 source: IAEA-NDS C5 file, database version 2023-08-08
#   X4 link: https://nds.iaea.org/EXFOR/207420051
# target: 
#   Z: 8
#   A: 16
#   nuclide: O16
# reaction: 
#   type: (n,res)
#   ENDF_MF: 402
#   ENDF_MT: 151
#   quantity: 
#     type: resonance parameter
#   datablock: 
#     columns: 5
#     entries: 26
##       E             dE             par           dpar       Normalization
##     [eV]           [eV]            []             []             []
   3.211700E+00   1.700000E-04   3.211700E+06   1.700000E+02   1.000000E+00
   3.438380E+00   1.900000E-04   3.438380E+06   1.900000E+02   1.000000E+00
   3.441730E+00   1.400000E-04   3.441730E+06   1.400000E+02   1.000000E+00
   3.767760E+00   2.200000E-04   3.767760E+06   2.200000E+02   1.000000E+00
   4.463410E+00   2.600000E-04   4.463410E+06   2.600000E+02   1.000000E+00
   4.527120E+00   7.000000E-05   4.527120E+06   7.000000E+01   1.000000E+00
   4.594830E+00   9.000000E-05   4.594830E+06   9.000000E+01   1.000000E+00
   4.631780E+00   1.200000E-04   4.631780E+06   1.200000E+02   1.000000E+00
   4.829900E+00   4.000000E-04   4.829900E+06   4.000000E+02   1.000000E+00
   5.127000E+00   1.600000E-03   5.127000E+06   1.600000E+03   1.000000E+00
   5.368900E+00   9.000000E-05   5.368900E+06   9.000000E+01   1.000000E+00
   5.919670E+00   1.400000E-04   5.919670E+06   1.400000E+02   1.000000E+00
   5.995680E+00   1.500000E-04   5.995680E+06   1.500000E+02   1.000000E+00
   6.076080E+00   1.500000E-04   6.076080E+06   1.500000E+02   1.000000E+00
   6.094800E+00   1.000000E-03   6.094800E+06   1.000000E+03   1.000000E+00
   6.404600E+00   5.000000E-04   6.404600E+06   5.000000E+02   1.000000E+00
   6.820700E+00   6.000000E-04   6.820700E+06   6.000000E+02   1.000000E+00
   7.199300E+00   1.300000E-03   7.199300E+06   1.300000E+03   1.000000E+00
   7.373310E+00   1.800000E-04   7.373310E+06   1.800000E+02   1.000000E+00
   8.848800E+00   6.000000E-04   8.848800E+06   6.000000E+02   1.000000E+00
   9.353000E+00   6.000000E-03   9.353000E+06   6.000000E+03   1.000000E+00
   9.414900E+00   6.000000E-04   9.414900E+06   6.000000E+02   1.000000E+00
   1.009250E+01   2.400000E-03   1.009250E+07   2.400000E+03   1.000000E+00
   1.072550E+01   1.500000E-03   1.072550E+07   1.500000E+03   1.000000E+00
   1.078500E+01   3.000000E-03   1.078500E+07   3.000000E+03   1.000000E+00
   1.485300E+01   4.000000E-03   1.485300E+07   4.000000E+03   1.000000E+00
# reference:
#   author: S.Cierjacks, F.Hinterberger, G.Schmalz, D.Erbe,  P.V.Rossen, B.Leugers
#   title: High precision time-of-flight measurements of neutron  resonance energies in carbon and oxygen between 3 and  30 MeV
#   journal: Jour: Nuclear Instrum.and Methods in Physics Res., Vol.169, p.185 (1980)
