# header:
#   title: Dy161(n,res) resonance parameter
#   source: EXFOR
#   user: Arjan Koning
#   date: 2024-01-18
#   format: YANDF-0.1
# exfor:
#   author: Liou
#   year: 1975
#   subentry: 105250033
#   X4 reaction: 66-DY-161(N,G),,WID
#   X4 source: IAEA-NDS C5 file, database version 2023-08-08
#   X4 link: https://nds.iaea.org/EXFOR/105250033
# target:
#   Z: 66
#   A: 161
#   nuclide: Dy161
# reaction:
#   type: (n,res)
#   ENDF_MF: 402
#   ENDF_MT: 151
# datablock:
#   quantity: resonance parameter
#   columns: 5
#   entries: 26
##       E             dE             par           dpar       Normalization
##     [eV]           [eV]            []             []             []
   1.431000E-05   5.000000E-08   1.080000E-01   1.500000E-02   1.000000E+00
   1.667000E-05   6.000000E-08   1.120000E-01   1.200000E-02   1.000000E+00
   1.848000E-05   6.000000E-08   1.020000E-01   1.500000E-02   1.000000E+00
   3.851000E-05   5.000000E-08   9.600001E-02   2.000000E-02   1.000000E+00
   4.327000E-05   6.000000E-08   1.120000E-01   1.500000E-02   1.000000E+00
   4.514000E-05   6.000000E-08   1.080000E-01   1.500000E-02   1.000000E+00
   5.172000E-05   6.000000E-08   1.150000E-01   1.500000E-02   1.000000E+00
   8.876999E-05   1.000000E-07   1.060000E-01   2.000000E-02   1.000000E+00
   9.329000E-05   1.100000E-07   1.100000E-01   1.500000E-02   1.000000E+00
   1.013500E-04   1.100000E-07   9.600001E-02   2.000000E-02   1.000000E+00
   1.246500E-04   1.500000E-07   1.070000E-01   1.500000E-02   1.000000E+00
   1.383800E-04   1.700000E-07   1.200000E-01   2.000000E-02   1.000000E+00
   1.625900E-04   2.300000E-07   1.170000E-01   2.000000E-02   1.000000E+00
   1.666000E-04   2.400000E-07   1.150000E-01   2.000000E-02   1.000000E+00
   1.686100E-04   2.400000E-07   1.100000E-01   2.000000E-02   1.000000E+00
   1.790500E-04   2.700000E-07   1.100000E-01   2.000000E-02   1.000000E+00
   1.893100E-04   2.900000E-07   1.070000E-01   1.500000E-02   1.000000E+00
   1.972800E-04   3.100000E-07   1.050000E-01   1.500000E-02   1.000000E+00
   2.060100E-04   2.700000E-07   1.200000E-01   2.000000E-02   1.000000E+00
   2.141500E-04   2.700000E-07   1.050000E-01   2.000000E-02   1.000000E+00
   2.756600E-04   2.000000E-07   1.180000E-01   2.000000E-02   1.000000E+00
   3.196100E-04   2.500000E-07   1.350000E-01   2.500000E-02   1.000000E+00
   3.376000E-04   2.700000E-07   1.300000E-01   2.500000E-02   1.000000E+00
   3.619500E-04   3.000000E-07   1.200000E-01   2.000000E-02   1.000000E+00
   3.924100E-04   3.400000E-07   1.200000E-01   2.500000E-02   1.000000E+00
   3.963500E-04   3.500000E-07   9.800000E-02   2.500000E-02   1.000000E+00
# reference:
#   author: H.I.Liou,G.Hacken,J.Rainwater,U.N.Singh
#   title: Neutron resonance spectroscopy: The separated isotopes  of Dy
#   journal: Jour: Physical Review, Part C, Nuclear Physics, Vol.11, p.462 (1975)
