# header: 
#   title: U238(n,xn) emission spectrum at  6.100000E+00 MeV
#   source: EXFOR
#   user: Arjan Koning
#   date: 2025-10-25
#   format: YANDF-0.4
# exfor: 
#   author: Baba
#   year: 1990
#   subentry: 22158005
#   X4 reaction: 92-U-238(N,X)0-NN-1,,DE
#   X4 source: IAEA-NDS C5 file, database version 2023-08-08
#   X4 link: https://nds.iaea.org/EXFOR/22158005
# target: 
#   Z: 92
#   A: 238
#   nuclide: U238
# reaction: 
#   type: (n,xn)
#   ENDF_MF: 5
#   ENDF_MT: 201
#   E-incident [MeV]:  6.100000E+00
#   quantity: 
#     type: emission spectrum
#   datablock: 
#     columns: 5
#     entries: 81
##     E-out         dE-out           xs             dxs       Normalization
##     [MeV]          [MeV]       [mb/MeV.sr]    [mb/MeV.sr]        []
   3.500000E-01   5.000000E-02   2.461800E-03   2.203900E-04   1.000000E+00
   4.500000E-01   5.000000E-02   2.568900E-03   1.522000E-04   1.000000E+00
   5.500000E-01   5.000000E-02   2.585000E-03   1.419100E-04   1.000000E+00
   6.500000E-01   5.000000E-02   2.415800E-03   1.300200E-04   1.000000E+00
   7.500000E-01   5.000000E-02   2.261000E-03   1.208300E-04   1.000000E+00
   8.500000E-01   5.000000E-02   2.089100E-03   1.110900E-04   1.000000E+00
   9.500000E-01   5.000000E-02   1.877200E-03   9.976700E-05   1.000000E+00
   1.050000E+00   5.000000E-02   1.743100E-03   9.267700E-05   1.000000E+00
   1.150000E+00   5.000000E-02   1.629200E-03   8.666300E-05   1.000000E+00
   1.250000E+00   5.000000E-02   1.464100E-03   7.792201E-05   1.000000E+00
   1.350000E+00   5.000000E-02   1.300300E-03   6.922500E-05   1.000000E+00
   1.450000E+00   5.000000E-02   1.134100E-03   6.034300E-05   1.000000E+00
   1.550000E+00   5.000000E-02   1.027500E-03   5.469600E-05   1.000000E+00
   1.650000E+00   5.000000E-02   9.999900E-04   5.329400E-05   1.000000E+00
   1.750000E+00   5.000000E-02   8.920300E-04   4.765700E-05   1.000000E+00
   1.850000E+00   5.000000E-02   8.499100E-04   4.550100E-05   1.000000E+00
   1.950000E+00   5.000000E-02   7.953300E-04   4.264300E-05   1.000000E+00
   2.050000E+00   5.000000E-02   7.110600E-04   3.813700E-05   1.000000E+00
   2.150000E+00   5.000000E-02   6.674500E-04   3.589600E-05   1.000000E+00
   2.250000E+00   5.000000E-02   6.057400E-04   3.274500E-05   1.000000E+00
   2.350000E+00   5.000000E-02   5.832800E-04   3.164300E-05   1.000000E+00
   2.450000E+00   5.000000E-02   5.448200E-04   2.955500E-05   1.000000E+00
   2.550000E+00   5.000000E-02   4.963599E-04   2.706100E-05   1.000000E+00
   2.650000E+00   5.000000E-02   4.644000E-04   2.543500E-05   1.000000E+00
   2.750000E+00   5.000000E-02   4.002300E-04   2.211700E-05   1.000000E+00
   2.850000E+00   5.000000E-02   3.565600E-04   1.977000E-05   1.000000E+00
   2.950000E+00   5.000000E-02   3.473400E-04   1.926500E-05   1.000000E+00
   3.050000E+00   5.000000E-02   3.322300E-04   1.854200E-05   1.000000E+00
   3.150000E+00   5.000000E-02   3.391700E-04   1.905500E-05   1.000000E+00
   3.250000E+00   5.000000E-02   3.176000E-04   1.796300E-05   1.000000E+00
   3.350000E+00   5.000000E-02   2.994000E-04   1.708800E-05   1.000000E+00
   3.450000E+00   5.000000E-02   2.709300E-04   1.552000E-05   1.000000E+00
   3.550000E+00   5.000000E-02   2.569900E-04   1.465700E-05   1.000000E+00
   3.650000E+00   5.000000E-02   2.511100E-04   1.427300E-05   1.000000E+00
   3.750000E+00   5.000000E-02   2.336000E-04   1.326300E-05   1.000000E+00
   3.850000E+00   5.000000E-02   2.217100E-04   1.256000E-05   1.000000E+00
   3.950000E+00   5.000000E-02   2.117800E-04   1.201500E-05   1.000000E+00
   4.050000E+00   5.000000E-02   1.940300E-04   1.101600E-05   1.000000E+00
   4.150000E+00   5.000000E-02   1.775700E-04   1.016900E-05   1.000000E+00
   4.250000E+00   5.000000E-02   1.539900E-04   9.012801E-06   1.000000E+00
   4.350000E+00   5.000000E-02   1.557600E-04   9.187600E-06   1.000000E+00
   4.450000E+00   5.000000E-02   1.524800E-04   9.260800E-06   1.000000E+00
   4.550000E+00   5.000000E-02   1.603600E-04   9.757000E-06   1.000000E+00
   4.650000E+00   5.000000E-02   1.565700E-04   9.732000E-06   1.000000E+00
   4.750000E+00   5.000000E-02   1.853700E-04   1.124700E-05   1.000000E+00
   4.850000E+00   5.000000E-02   2.103500E-04   1.246000E-05   1.000000E+00
   4.950000E+00   5.000000E-02   2.167300E-04   1.282400E-05   1.000000E+00
   5.050000E+00   5.000000E-02   1.943300E-04   1.179300E-05   1.000000E+00
   5.150000E+00   5.000000E-02   1.830400E-04   1.130200E-05   1.000000E+00
   5.250000E+00   5.000000E-02   1.963700E-04   1.206800E-05   1.000000E+00
   5.350000E+00   5.000000E-02   2.036700E-04   1.260300E-05   1.000000E+00
   5.450000E+00   5.000000E-02   2.282300E-04   1.386500E-05   1.000000E+00
   5.550000E+00   5.000000E-02   3.103500E-04   1.804300E-05   1.000000E+00
   5.650000E+00   5.000000E-02   5.438400E-04   2.986000E-05   1.000000E+00
   5.750000E+00   5.000000E-02   1.254400E-03   6.755200E-05   1.000000E+00
   5.850000E+00   5.000000E-02   2.593900E-03   1.386000E-04   1.000000E+00
   5.950000E+00   5.000000E-02   3.294700E-03   1.759100E-04   1.000000E+00
   6.050000E+00   5.000000E-02   2.294500E-03   1.233900E-04   1.000000E+00
   6.150000E+00   5.000000E-02   9.269400E-04   5.038100E-05   1.000000E+00
   6.250000E+00   5.000000E-02   3.585400E-04   1.988100E-05   1.000000E+00
   6.350000E+00   5.000000E-02   2.176500E-04   1.244300E-05   1.000000E+00
   6.450000E+00   5.000000E-02   1.475600E-04   8.735600E-06   1.000000E+00
   6.550000E+00   5.000000E-02   1.035200E-04   6.259900E-06   1.000000E+00
   6.650000E+00   5.000000E-02   9.134200E-05   5.641700E-06   1.000000E+00
   6.750000E+00   5.000000E-02   7.384600E-05   4.771300E-06   1.000000E+00
   6.850000E+00   5.000000E-02   6.189400E-05   4.258000E-06   1.000000E+00
   6.950000E+00   5.000000E-02   5.281600E-05   3.807000E-06   1.000000E+00
   7.050000E+00   5.000000E-02   4.572200E-05   3.493700E-06   1.000000E+00
   7.150000E+00   5.000000E-02   4.169400E-05   3.355300E-06   1.000000E+00
   7.250000E+00   5.000000E-02   3.376000E-05   2.973900E-06   1.000000E+00
   7.350000E+00   5.000000E-02   2.840900E-05   2.746600E-06   1.000000E+00
   7.450000E+00   5.000000E-02   2.182400E-05   2.558000E-06   1.000000E+00
   7.550000E+00   5.000000E-02   2.373400E-05   2.591700E-06   1.000000E+00
   7.650000E+00   5.000000E-02   1.970500E-05   2.447400E-06   1.000000E+00
   7.750000E+00   5.000000E-02   1.579800E-05   2.276500E-06   1.000000E+00
   7.850000E+00   5.000000E-02   1.777000E-05   2.454000E-06   1.000000E+00
   7.950000E+00   5.000000E-02   1.567600E-05   2.370400E-06   1.000000E+00
   8.050000E+00   5.000050E-02   1.235200E-05   2.213300E-06   1.000000E+00
   8.150000E+00   5.000000E-02   1.003100E-05   2.178800E-06   1.000000E+00
   8.250000E+00   5.000000E-02   6.277300E-06   1.881700E-06   1.000000E+00
   8.350000E+00   5.000000E-02   3.421200E-07   4.544900E-07   1.000000E+00
# reference:
#   author: M.Baba, H.Wakabayashi, N.Ito, K.Maeda, N.Hirakawa
#   title: Measurements of prompt fission neutron spectra and  double-differential neutron inelastic-scattering  cross sections for 238U and 232Th
#   journal: Jour: Jour. of Nuclear Science and Technology, Vol.27, p.601 (1990)
