# header: 
#   title: U238(n,xn) emission spectrum at  1.800000E+01 MeV
#   source: EXFOR
#   user: Arjan Koning
#   date: 2025-08-01
#   format: YANDF-0.2
# exfor: 
#   author: Matsuyama
#   year: 1991
#   subentry: 22353005
#   X4 reaction: 92-U-238(N,X)0-NN-1,,DE
#   X4 source: IAEA-NDS C5 file, database version 2023-08-08
#   X4 link: https://nds.iaea.org/EXFOR/22353005
# target: 
#   Z: 92
#   A: 238
#   nuclide: U238
# reaction: 
#   type: (n,xn)
#   ENDF_MF: 5
#   ENDF_MT: 201
#   E-incident [MeV]:  1.800000E+01
#   quantity: 
#     type: emission spectrum
#   datablock: 
#     columns: 5
#     entries: 72
##     E-out         dE-out           xs             dxs       Normalization
##     [MeV]          [MeV]       [mb/MeV.sr]    [mb/MeV.sr]        []
   8.000000E-01   1.000000E-01   4.755900E-03   7.589200E-04   1.000000E+00
   1.000000E+00   1.000000E-01   4.330100E-03   6.853800E-04   1.000000E+00
   1.200000E+00   1.000000E-01   3.889100E-03   6.155700E-04   1.000000E+00
   1.400000E+00   1.000000E-01   3.433300E-03   5.430700E-04   1.000000E+00
   1.600000E+00   1.000000E-01   3.019300E-03   4.777300E-04   1.000000E+00
   1.800000E+00   1.000000E-01   2.642800E-03   4.179500E-04   1.000000E+00
   2.000000E+00   1.000000E-01   2.268200E-03   3.594000E-04   1.000000E+00
   2.200000E+00   1.000000E-01   2.040300E-03   3.230200E-04   1.000000E+00
   2.400000E+00   1.000000E-01   1.779700E-03   2.815500E-04   1.000000E+00
   2.600000E+00   1.000000E-01   1.635700E-03   2.586500E-04   1.000000E+00
   2.800000E+00   1.000000E-01   1.355800E-03   2.150100E-04   1.000000E+00
   3.000000E+00   1.000000E-01   1.183000E-03   1.874300E-04   1.000000E+00
   3.200000E+00   1.000000E-01   1.064200E-03   1.687900E-04   1.000000E+00
   3.400000E+00   1.000000E-01   9.616900E-04   1.527800E-04   1.000000E+00
   3.600000E+00   1.000000E-01   7.989800E-04   1.297400E-04   1.000000E+00
   3.800000E+00   1.000000E-01   6.971100E-04   1.113800E-04   1.000000E+00
   4.000000E+00   1.000000E-01   6.256300E-04   1.008200E-04   1.000000E+00
   4.200000E+00   1.000000E-01   5.830100E-04   9.490400E-05   1.000000E+00
   4.400000E+00   1.000000E-01   5.482200E-04   8.793799E-05   1.000000E+00
   4.600000E+00   1.000000E-01   4.567400E-04   7.446800E-05   1.000000E+00
   4.800000E+00   1.000000E-01   4.613000E-04   7.365900E-05   1.000000E+00
   5.000000E+00   1.000000E-01   4.075500E-04   6.509400E-05   1.000000E+00
   5.200000E+00   1.000000E-01   3.254200E-04   5.324300E-05   1.000000E+00
   5.400000E+00   1.000000E-01   2.622800E-04   4.783900E-05   1.000000E+00
   5.600000E+00   1.000000E-01   2.356400E-04   3.865000E-05   1.000000E+00
   5.800000E+00   1.000000E-01   2.373300E-04   3.871300E-05   1.000000E+00
   6.000000E+00   1.000000E-01   2.207200E-04   3.789100E-05   1.000000E+00
   6.200000E+00   1.000000E-01   1.859300E-04   2.999300E-05   1.000000E+00
   6.400000E+00   1.000000E-01   1.711500E-04   3.557100E-05   1.000000E+00
   6.600000E+00   1.000000E-01   1.676900E-04   3.221100E-05   1.000000E+00
   6.800000E+00   1.000000E-01   1.715200E-04   2.776700E-05   1.000000E+00
   7.000000E+00   1.000000E-01   1.692600E-04   2.815000E-05   1.000000E+00
   7.200000E+00   1.000000E-01   1.357400E-04   2.373700E-05   1.000000E+00
   7.400000E+00   1.000000E-01   1.256100E-04   2.070400E-05   1.000000E+00
   7.600000E+00   1.000000E-01   1.129200E-04   1.941500E-05   1.000000E+00
   7.800000E+00   1.000000E-01   9.633100E-05   1.919100E-05   1.000000E+00
   8.000000E+00   1.000005E-01   8.884900E-05   1.475500E-05   1.000000E+00
   8.200000E+00   1.000000E-01   7.644600E-05   1.995700E-05   1.000000E+00
   8.400000E+00   1.000000E-01   7.577200E-05   1.289800E-05   1.000000E+00
   8.600000E+00   1.000000E-01   6.400900E-05   1.080600E-05   1.000000E+00
   8.800000E+00   1.000000E-01   6.902700E-05   1.167500E-05   1.000000E+00
   9.000000E+00   1.000000E-01   6.325500E-05   1.045000E-05   1.000000E+00
   9.200000E+00   1.000000E-01   5.503300E-05   1.064300E-05   1.000000E+00
   9.400000E+00   1.000000E-01   4.413300E-05   1.104100E-05   1.000000E+00
   9.600000E+00   1.000000E-01   4.572600E-05   7.801600E-06   1.000000E+00
   9.800000E+00   1.000000E-01   5.912200E-05   1.144600E-05   1.000000E+00
   1.000000E+01   1.000000E-01   5.683800E-05   1.034700E-05   1.000000E+00
   1.030000E+01   2.000000E-01   4.661200E-05   8.834300E-06   1.000000E+00
   1.070000E+01   2.000000E-01   4.112100E-05   1.094600E-05   1.000000E+00
   1.110000E+01   2.000000E-01   4.598400E-05   1.048100E-05   1.000000E+00
   1.150000E+01   2.000000E-01   4.612400E-05   1.258900E-05   1.000000E+00
   1.190000E+01   2.000000E-01   5.388100E-05   9.917100E-06   1.000000E+00
   1.230000E+01   2.000000E-01   4.690400E-05   8.525700E-06   1.000000E+00
   1.270000E+01   2.000000E-01   3.242300E-05   7.336000E-06   1.000000E+00
   1.310000E+01   2.000000E-01   3.446700E-05   1.051900E-05   1.000000E+00
   1.350000E+01   2.000000E-01   3.660500E-05   9.286499E-06   1.000000E+00
   1.390000E+01   2.000000E-01   4.709100E-05   1.106800E-05   1.000000E+00
   1.430000E+01   2.000000E-01   4.502700E-05   7.745200E-06   1.000000E+00
   1.470000E+01   2.000000E-01   2.815200E-05   6.927900E-06   1.000000E+00
   1.510000E+01   2.000000E-01   2.164200E-05   5.733900E-06   1.000000E+00
   1.550000E+01   2.000000E-01   6.012900E-05   1.027800E-05   1.000000E+00
   1.590000E+01   2.000000E-01   8.686400E-05   1.417600E-05   1.000000E+00
   1.630000E+01   2.000000E-01   1.395200E-04   2.206100E-05   1.000000E+00
   1.670000E+01   2.000000E-01   1.592400E-04   2.619800E-05   1.000000E+00
   1.710000E+01   2.000000E-01   4.648800E-04   7.912600E-05   1.000000E+00
   1.750000E+01   2.000000E-01   8.323900E-04   1.414000E-04   1.000000E+00
   1.790000E+01   2.000000E-01   8.673200E-04   1.534200E-04   1.000000E+00
   1.830000E+01   2.000000E-01   7.939400E-04   1.461400E-04   1.000000E+00
   1.870000E+01   2.000000E-01   6.506300E-04   1.193200E-04   1.000000E+00
   1.910000E+01   2.000000E-01   3.341000E-04   7.533999E-05   1.000000E+00
   1.950000E+01   2.000000E-01   9.350300E-05   4.050600E-05   1.000000E+00
   1.990000E+01   2.000000E-01   2.864000E-05   1.580700E-05   1.000000E+00
# reference:
#   author: S.Matsuyama,M.Baba,T.Ito,K.Maeda,N.Ito,H.Nakamura, N.Hirakawa
#   title: Measurement of double-differential neutron emission spectra of 238-U and 232-Th at incident energy 18.0 MeV
#   journal: Conf: JAERI-M Reports, No.91-032, p.219 (1991)
