# header: 
#   title: U238(n,xn) emission spectrum at  2.030000E+00 MeV
#   source: EXFOR
#   user: Arjan Koning
#   date: 2025-10-25
#   format: YANDF-0.4
# exfor: 
#   author: Baba
#   year: 1990
#   subentry: 22158005
#   X4 reaction: 92-U-238(N,X)0-NN-1,,DE
#   X4 source: IAEA-NDS C5 file, database version 2023-08-08
#   X4 link: https://nds.iaea.org/EXFOR/22158005
# target: 
#   Z: 92
#   A: 238
#   nuclide: U238
# reaction: 
#   type: (n,xn)
#   ENDF_MF: 5
#   ENDF_MT: 201
#   E-incident [MeV]:  2.030000E+00
#   quantity: 
#     type: emission spectrum
#   datablock: 
#     columns: 5
#     entries: 89
##     E-out         dE-out           xs             dxs       Normalization
##     [MeV]          [MeV]       [mb/MeV.sr]    [mb/MeV.sr]        []
   6.000000E-02   2.000000E-02   0.000000E+00   0.000000E+00   1.000000E+00
   1.000000E-01   2.000000E-02   0.000000E+00   0.000000E+00   1.000000E+00
   1.400000E-01   2.000000E-02   3.312400E-06   6.534500E-07   1.000000E+00
   1.800000E-01   2.000000E-02   1.907100E-04   2.491600E-05   1.000000E+00
   2.200000E-01   2.000000E-02   2.449500E-03   2.331000E-04   1.000000E+00
   2.600000E-01   2.000000E-02   2.892400E-03   2.015500E-04   1.000000E+00
   3.000000E-01   2.000000E-02   2.891400E-03   1.818200E-04   1.000000E+00
   3.400000E-01   2.000000E-02   3.563000E-03   2.056500E-04   1.000000E+00
   3.800000E-01   2.000000E-02   3.606800E-03   2.037400E-04   1.000000E+00
   4.200000E-01   2.000000E-02   3.347500E-03   1.883500E-04   1.000000E+00
   4.600000E-01   2.000000E-02   3.242000E-03   1.803500E-04   1.000000E+00
   5.000000E-01   1.999997E-02   3.138400E-03   1.722600E-04   1.000000E+00
   5.400000E-01   2.000000E-02   2.329600E-03   1.283400E-04   1.000000E+00
   5.800000E-01   2.000000E-02   1.795900E-03   1.000100E-04   1.000000E+00
   6.200000E-01   2.000000E-02   1.811200E-03   1.005000E-04   1.000000E+00
   6.600000E-01   2.000000E-02   1.791700E-03   9.979400E-05   1.000000E+00
   7.000000E-01   2.000000E-02   1.841600E-03   1.021500E-04   1.000000E+00
   7.400000E-01   2.000000E-02   2.175700E-03   1.186200E-04   1.000000E+00
   7.800000E-01   2.000000E-02   2.252200E-03   1.222000E-04   1.000000E+00
   8.200000E-01   2.000000E-02   2.460500E-03   1.338000E-04   1.000000E+00
   8.600000E-01   2.000000E-02   2.584000E-03   1.398600E-04   1.000000E+00
   9.000000E-01   2.000000E-02   2.110100E-03   1.140500E-04   1.000000E+00
   9.400000E-01   2.000000E-02   2.611100E-03   1.396900E-04   1.000000E+00
   9.800000E-01   2.000000E-02   3.145000E-03   1.691600E-04   1.000000E+00
   1.020000E+00   1.999994E-02   2.656300E-03   1.439900E-04   1.000000E+00
   1.060000E+00   2.000000E-02   2.326000E-03   1.266700E-04   1.000000E+00
   1.100000E+00   2.000000E-02   1.341100E-03   7.425099E-05   1.000000E+00
   1.140000E+00   2.000000E-02   7.416200E-04   4.446000E-05   1.000000E+00
   1.180000E+00   2.000000E-02   7.171200E-04   4.316800E-05   1.000000E+00
   1.220000E+00   2.000000E-02   7.648300E-04   4.536300E-05   1.000000E+00
   1.260000E+00   2.000000E-02   9.952900E-04   5.736000E-05   1.000000E+00
   1.300000E+00   2.000000E-02   1.317100E-03   7.524600E-05   1.000000E+00
   1.340000E+00   2.000000E-02   1.175500E-03   6.891800E-05   1.000000E+00
   1.380000E+00   2.000000E-02   8.287900E-04   5.064000E-05   1.000000E+00
   1.420000E+00   2.000000E-02   6.483600E-04   4.020200E-05   1.000000E+00
   1.460000E+00   2.000000E-02   5.948100E-04   3.772800E-05   1.000000E+00
   1.500000E+00   2.000000E-02   6.698900E-04   4.180500E-05   1.000000E+00
   1.540000E+00   2.000000E-02   6.527300E-04   4.132400E-05   1.000000E+00
   1.580000E+00   2.000000E-02   6.198200E-04   3.939700E-05   1.000000E+00
   1.620000E+00   2.000000E-02   6.270300E-04   3.893900E-05   1.000000E+00
   1.660000E+00   2.000000E-02   7.497700E-04   4.481900E-05   1.000000E+00
   1.700000E+00   2.000000E-02   8.731300E-04   5.099100E-05   1.000000E+00
   1.740000E+00   2.000000E-02   9.342700E-04   5.497700E-05   1.000000E+00
   1.780000E+00   2.000000E-02   1.038500E-03   6.129200E-05   1.000000E+00
   1.820000E+00   2.000000E-02   1.620300E-03   9.208000E-05   1.000000E+00
   1.860000E+00   2.000000E-02   2.629900E-03   1.437400E-04   1.000000E+00
   1.900000E+00   2.000000E-02   4.221100E-03   2.253100E-04   1.000000E+00
   1.940000E+00   2.000000E-02   8.571700E-03   4.503900E-04   1.000000E+00
   1.980000E+00   2.000000E-02   1.574500E-02   8.246600E-04   1.000000E+00
   2.020000E+00   2.000000E-02   1.714200E-02   8.991600E-04   1.000000E+00
   2.060000E+00   1.999987E-02   1.062800E-02   5.593400E-04   1.000000E+00
   2.100000E+00   2.000000E-02   3.818300E-03   2.025800E-04   1.000000E+00
   2.140000E+00   2.000000E-02   9.919400E-04   5.458300E-05   1.000000E+00
   2.180000E+00   2.000000E-02   5.386900E-04   3.206700E-05   1.000000E+00
   2.220000E+00   2.000000E-02   4.668400E-04   2.866000E-05   1.000000E+00
   2.260000E+00   2.000000E-02   4.304100E-04   2.674700E-05   1.000000E+00
   2.300000E+00   2.000000E-02   4.169000E-04   2.601200E-05   1.000000E+00
   2.340000E+00   2.000000E-02   3.652700E-04   2.311600E-05   1.000000E+00
   2.380000E+00   2.000000E-02   3.569900E-04   2.251300E-05   1.000000E+00
   2.420000E+00   2.000000E-02   3.227200E-04   2.085900E-05   1.000000E+00
   2.460000E+00   2.000000E-02   2.978700E-04   1.964700E-05   1.000000E+00
   2.500000E+00   2.000000E-02   3.135800E-04   2.062400E-05   1.000000E+00
   2.540000E+00   2.000000E-02   2.601900E-04   1.825100E-05   1.000000E+00
   2.580000E+00   2.000000E-02   2.578800E-04   1.761700E-05   1.000000E+00
   2.620000E+00   2.000000E-02   2.545200E-04   1.710900E-05   1.000000E+00
   2.660000E+00   2.000000E-02   2.404900E-04   1.628300E-05   1.000000E+00
   2.700000E+00   2.000000E-02   2.264900E-04   1.554400E-05   1.000000E+00
   2.740000E+00   2.000000E-02   2.351400E-04   1.612900E-05   1.000000E+00
   2.780000E+00   2.000000E-02   2.435100E-04   1.656400E-05   1.000000E+00
   2.820000E+00   2.000000E-02   2.304600E-04   1.607400E-05   1.000000E+00
   2.860000E+00   2.000000E-02   2.018800E-04   1.483900E-05   1.000000E+00
   2.900000E+00   2.000000E-02   1.972800E-04   1.455800E-05   1.000000E+00
   2.940000E+00   2.000000E-02   2.070300E-04   1.495800E-05   1.000000E+00
   2.980000E+00   2.000000E-02   2.229100E-04   1.563900E-05   1.000000E+00
   3.020000E+00   2.000000E-02   2.295300E-04   1.585200E-05   1.000000E+00
   3.060000E+00   2.000000E-02   1.994500E-04   1.452500E-05   1.000000E+00
   3.100000E+00   2.000000E-02   1.924100E-04   1.430700E-05   1.000000E+00
   3.140000E+00   2.000000E-02   1.737800E-04   1.313700E-05   1.000000E+00
   3.180000E+00   2.000000E-02   1.769700E-04   1.328800E-05   1.000000E+00
   3.220000E+00   2.000000E-02   1.680800E-04   1.286600E-05   1.000000E+00
   3.260000E+00   2.000000E-02   1.684600E-04   1.293800E-05   1.000000E+00
   3.300000E+00   2.000000E-02   1.613300E-04   1.254100E-05   1.000000E+00
   3.340000E+00   2.000000E-02   1.742000E-04   1.353800E-05   1.000000E+00
   3.380000E+00   2.000000E-02   1.754700E-04   1.395500E-05   1.000000E+00
   3.420000E+00   2.000000E-02   1.654900E-04   1.317800E-05   1.000000E+00
   3.460000E+00   2.000000E-02   1.552900E-04   1.257900E-05   1.000000E+00
   3.500000E+00   2.000000E-02   1.411800E-04   1.225500E-05   1.000000E+00
   3.540000E+00   2.000000E-02   1.210100E-05   2.215400E-06   1.000000E+00
   3.580000E+00   2.000000E-02   5.142700E-05   1.360100E-02   1.000000E+00
# reference:
#   author: M.Baba, H.Wakabayashi, N.Ito, K.Maeda, N.Hirakawa
#   title: Measurements of prompt fission neutron spectra and  double-differential neutron inelastic-scattering  cross sections for 238U and 232Th
#   journal: Jour: Jour. of Nuclear Science and Technology, Vol.27, p.601 (1990)
