# header: 
#   title: U235(n,f) fission yield
#   source: EXFOR
#   user: Arjan Koning
#   date: 2025-12-18
#   format: YANDF-0.4
# exfor: 
#   author: Diiorio
#   year: 1977
#   subentry: 13359002
#   X4 reaction: 92-U-235(N,F)MASS,CHN,FY,,MXW
#   X4 source: IAEA-NDS C5 file, database version 2023-08-08
#   X4 link: https://nds.iaea.org/EXFOR/13359002
# target: 
#   Z: 92
#   A: 235
#   nuclide: U235
# reaction: 
#   type: (n,f)
#   ENDF_MF: 801
#   ENDF_MT: 459
#   quantity: 
#     type: fission yield
#   datablock: 
#     columns: 6
#     entries: 64
##       Z              A           Isomer          Yield         dYield      Normalization
##      []             []             []             []             []             []
        0             77             -1         8.200000E-05   1.000000E-05   1.000000E+00
        0             78             -1         2.160000E-04   2.000000E-05   1.000000E+00
        0             79             -1         4.390000E-04   3.000000E-05   1.000000E+00
        0             80             -1         1.300000E-03   6.000000E-05   1.000000E+00
        0             81             -1         1.900000E-03   7.000000E-05   1.000000E+00
        0             82             -1         3.210000E-03   9.000000E-05   1.000000E+00
        0             83             -1         5.600000E-03   1.200000E-04   1.000000E+00
        0             84             -1         1.030000E-02   1.900000E-04   1.000000E+00
        0             85             -1         1.340000E-02   2.200000E-04   1.000000E+00
        0             86             -1         1.990000E-02   2.300000E-04   1.000000E+00
        0             87             -1         2.600000E-02   2.900000E-04   1.000000E+00
        0             88             -1         3.630000E-02   4.300000E-04   1.000000E+00
        0             89             -1         4.840000E-02   6.400000E-04   1.000000E+00
        0             90             -1         5.880000E-02   4.500000E-04   1.000000E+00
        0             91             -1         6.010000E-02   4.100000E-04   1.000000E+00
        0             92             -1         6.010000E-02   4.300000E-04   1.000000E+00
        0             93             -1         6.340000E-02   5.000000E-04   1.000000E+00
        0             94             -1         6.430000E-02   4.900000E-04   1.000000E+00
        0             95             -1         6.610000E-02   4.200000E-04   1.000000E+00
        0             96             -1         6.350000E-02   4.000000E-04   1.000000E+00
        0             97             -1         6.010000E-02   9.800000E-04   1.000000E+00
        0             98             -1         5.600000E-02   9.700000E-04   1.000000E+00
        0             99             -1         6.040000E-02   3.800000E-04   1.000000E+00
        0            100             -1         6.170000E-02   3.800000E-04   1.000000E+00
        0            101             -1         5.140000E-02   3.500000E-04   1.000000E+00
        0            102             -1         4.260000E-02   3.200000E-04   1.000000E+00
        0            103             -1         2.940000E-02   2.700000E-04   1.000000E+00
        0            104             -1         1.870000E-02   2.100000E-04   1.000000E+00
        0            105             -1         9.570000E-03   1.500000E-04   1.000000E+00
        0            106             -1         4.360000E-03   1.000000E-04   1.000000E+00
        0            107             -1         1.390000E-03   6.000000E-05   1.000000E+00
        0            108             -1         6.700000E-04   4.000000E-05   1.000000E+00
        0            109             -1         3.800000E-04   3.000000E-05   1.000000E+00
        0            110             -1         3.300000E-04   3.000000E-05   1.000000E+00
        0            125             -1         2.940000E-04   5.000000E-05   1.000000E+00
        0            126             -1         5.850000E-04   7.000000E-05   1.000000E+00
        0            127             -1         1.233000E-03   9.000000E-05   1.000000E+00
        0            128             -1         3.600000E-03   1.100000E-04   1.000000E+00
        0            129             -1         8.039000E-03   1.600000E-04   1.000000E+00
        0            130             -1         1.812400E-02   2.300000E-04   1.000000E+00
        0            131             -1         2.925000E-02   4.000000E-04   1.000000E+00
        0            132             -1         4.203000E-02   4.800000E-04   1.000000E+00
        0            133             -1         6.555000E-02   6.000000E-04   1.000000E+00
        0            134             -1         7.651000E-02   6.400000E-04   1.000000E+00
        0            135             -1         6.557000E-02   6.000000E-04   1.000000E+00
        0            136             -1         6.223000E-02   6.700000E-04   1.000000E+00
        0            137             -1         6.458000E-02   7.600000E-04   1.000000E+00
        0            138             -1         6.811000E-02   7.700000E-04   1.000000E+00
        0            139             -1         6.321000E-02   7.600000E-04   1.000000E+00
        0            140             -1         6.070000E-02   6.300000E-04   1.000000E+00
        0            141             -1         6.019000E-02   5.300000E-04   1.000000E+00
        0            142             -1         5.639000E-02   5.100000E-04   1.000000E+00
        0            143             -1         6.087000E-02   5.200000E-04   1.000000E+00
        0            144             -1         5.595000E-02   4.900000E-04   1.000000E+00
        0            145             -1         4.131000E-02   4.100000E-04   1.000000E+00
        0            146             -1         3.000000E-02   3.500000E-04   1.000000E+00
        0            147             -1         2.295000E-02   3.100000E-04   1.000000E+00
        0            148             -1         1.645000E-02   2.600000E-04   1.000000E+00
        0            149             -1         9.670000E-03   4.700000E-04   1.000000E+00
        0            150             -1         6.670000E-03   1.800000E-04   1.000000E+00
        0            151             -1         4.170000E-03   1.500000E-04   1.000000E+00
        0            152             -1         2.750000E-03   1.300000E-04   1.000000E+00
        0            153             -1         1.050000E-03   1.100000E-04   1.000000E+00
        0            154             -1         5.600000E-04   9.000000E-05   1.000000E+00
# reference:
#   author: G.DiIorio,B.W.Wehring
#   title: HIAWATHA, a fission-fragment recoil mass spectrometer
#   journal: Jour: Nuclear Instrum.and Methods in Physics Res., Vol.147, p.487 (1977)
