# header: 
#   title: Ta181(n,xn) emission spectrum at  1.410000E+01 MeV
#   source: EXFOR
#   user: Arjan Koning
#   date: 2025-12-18
#   format: YANDF-0.4
# exfor: 
#   author: Matsuyama
#   year: 1993
#   subentry: 22352009
#   X4 reaction: 73-TA-181(N,X)0-NN-1,,DE
#   X4 source: IAEA-NDS C5 file, database version 2023-08-08
#   X4 link: https://nds.iaea.org/EXFOR/22352009
# target: 
#   Z: 73
#   A: 181
#   nuclide: Ta181
# reaction: 
#   type: (n,xn)
#   ENDF_MF: 5
#   ENDF_MT: 201
#   E-incident [MeV]:  1.410000E+01
#   quantity: 
#     type: emission spectrum
#   datablock: 
#     columns: 5
#     entries: 74
##     E-out         dE-out           xs             dxs       Normalization
##     [MeV]          [MeV]       [mb/MeV.sr]    [mb/MeV.sr]        []
   1.000000E+00   1.000000E-01   2.062300E-03   1.093100E-04   1.000000E+00
   1.200000E+00   1.000000E-01   1.837500E-03   9.274100E-05   1.000000E+00
   1.400000E+00   1.000000E-01   1.438700E-03   7.400800E-05   1.000000E+00
   1.600000E+00   1.000000E-01   1.191500E-03   6.056400E-05   1.000000E+00
   1.800000E+00   1.000000E-01   9.453700E-04   4.828700E-05   1.000000E+00
   2.000000E+00   1.000000E-01   7.971900E-04   4.110900E-05   1.000000E+00
   2.200000E+00   1.000000E-01   6.577100E-04   3.363200E-05   1.000000E+00
   2.400000E+00   1.000000E-01   5.754400E-04   2.911300E-05   1.000000E+00
   2.600000E+00   1.000000E-01   4.615500E-04   2.393400E-05   1.000000E+00
   2.800000E+00   1.000000E-01   3.602400E-04   1.830600E-05   1.000000E+00
   3.000000E+00   1.000000E-01   2.900200E-04   1.484100E-05   1.000000E+00
   3.200000E+00   1.000000E-01   2.404700E-04   1.252200E-05   1.000000E+00
   3.400000E+00   1.000000E-01   1.955100E-04   1.019500E-05   1.000000E+00
   3.600000E+00   1.000000E-01   1.555000E-04   8.045200E-06   1.000000E+00
   3.800000E+00   1.000000E-01   1.418300E-04   7.383600E-06   1.000000E+00
   4.000000E+00   1.000000E-01   1.234600E-04   6.904000E-06   1.000000E+00
   4.200000E+00   1.000000E-01   1.052700E-04   6.322500E-06   1.000000E+00
   4.400000E+00   1.000000E-01   9.764400E-05   5.173900E-06   1.000000E+00
   4.600000E+00   1.000000E-01   8.201100E-05   5.075400E-06   1.000000E+00
   4.800000E+00   1.000000E-01   7.152800E-05   4.821300E-06   1.000000E+00
   5.000000E+00   1.000000E-01   6.668000E-05   3.882100E-06   1.000000E+00
   5.200000E+00   1.000000E-01   6.170201E-05   3.980800E-06   1.000000E+00
   5.400000E+00   1.000000E-01   5.656400E-05   3.530100E-06   1.000000E+00
   5.600000E+00   1.000000E-01   5.821100E-05   3.508100E-06   1.000000E+00
   5.800000E+00   1.000000E-01   5.783300E-05   3.339800E-06   1.000000E+00
   6.000000E+00   1.000000E-01   5.201700E-05   2.897500E-06   1.000000E+00
   6.200000E+00   1.000000E-01   4.968600E-05   3.312700E-06   1.000000E+00
   6.400000E+00   1.000000E-01   4.591000E-05   3.906900E-06   1.000000E+00
   6.600000E+00   1.000000E-01   4.841800E-05   2.466100E-06   1.000000E+00
   6.800000E+00   1.000000E-01   4.885600E-05   3.315000E-06   1.000000E+00
   7.000000E+00   1.000000E-01   4.997800E-05   3.065100E-06   1.000000E+00
   7.200000E+00   1.000000E-01   5.068000E-05   2.867900E-06   1.000000E+00
   7.400000E+00   1.000000E-01   4.688400E-05   2.682100E-06   1.000000E+00
   7.600000E+00   1.000000E-01   4.539100E-05   2.411000E-06   1.000000E+00
   7.800000E+00   1.000000E-01   4.367100E-05   2.798500E-06   1.000000E+00
   8.000000E+00   1.000005E-01   4.746300E-05   2.686800E-06   1.000000E+00
   8.200000E+00   1.000000E-01   4.677100E-05   2.967800E-06   1.000000E+00
   8.400000E+00   1.000000E-01   4.448700E-05   2.701500E-06   1.000000E+00
   8.600000E+00   1.000000E-01   4.795600E-05   2.921000E-06   1.000000E+00
   8.800000E+00   1.000000E-01   4.630800E-05   3.097000E-06   1.000000E+00
   9.000000E+00   1.000000E-01   4.491600E-05   2.949300E-06   1.000000E+00
   9.200000E+00   1.000000E-01   4.744700E-05   2.504300E-06   1.000000E+00
   9.400000E+00   1.000000E-01   4.642200E-05   3.222100E-06   1.000000E+00
   9.600000E+00   1.000000E-01   4.689700E-05   3.615800E-06   1.000000E+00
   9.800000E+00   1.000000E-01   4.558300E-05   3.243500E-06   1.000000E+00
   1.000000E+01   1.000000E-01   4.627300E-05   2.479800E-06   1.000000E+00
   1.020000E+01   1.000000E-01   4.643400E-05   2.545400E-06   1.000000E+00
   1.040000E+01   1.000000E-01   4.269400E-05   3.283800E-06   1.000000E+00
   1.060000E+01   1.000000E-01   3.933700E-05   3.148200E-06   1.000000E+00
   1.080000E+01   1.000000E-01   3.558300E-05   2.788100E-06   1.000000E+00
   1.100000E+01   1.000000E-01   3.490700E-05   2.966300E-06   1.000000E+00
   1.120000E+01   1.000000E-01   3.215500E-05   2.449300E-06   1.000000E+00
   1.140000E+01   1.000000E-01   3.017000E-05   3.675900E-06   1.000000E+00
   1.160000E+01   1.000000E-01   2.945800E-05   3.726600E-06   1.000000E+00
   1.180000E+01   1.000000E-01   2.996600E-05   2.601400E-06   1.000000E+00
   1.200000E+01   1.000000E-01   3.030700E-05   2.735800E-06   1.000000E+00
   1.220000E+01   1.000000E-01   3.460800E-05   2.563600E-06   1.000000E+00
   1.240000E+01   1.000000E-01   4.706700E-05   4.220500E-06   1.000000E+00
   1.260000E+01   1.000000E-01   5.724400E-05   5.563900E-06   1.000000E+00
   1.280000E+01   1.000000E-01   7.639600E-05   8.637900E-06   1.000000E+00
   1.300000E+01   1.000000E-01   1.028900E-04   1.619100E-05   1.000000E+00
   1.320000E+01   1.000000E-01   1.531900E-04   3.572800E-05   1.000000E+00
   1.340000E+01   1.000000E-01   2.461000E-04   7.031101E-05   1.000000E+00
   1.360000E+01   1.000000E-01   3.986900E-04   1.096900E-04   1.000000E+00
   1.380000E+01   1.000000E-01   5.665100E-04   1.346100E-04   1.000000E+00
   1.400000E+01   1.000000E-01   6.412000E-04   1.168900E-04   1.000000E+00
   1.420000E+01   1.000000E-01   5.340800E-04   7.546400E-05   1.000000E+00
   1.440000E+01   1.000000E-01   3.472800E-04   4.097000E-05   1.000000E+00
   1.460000E+01   1.000000E-01   1.942900E-04   2.125300E-05   1.000000E+00
   1.480000E+01   1.000000E-01   1.049500E-04   1.248100E-05   1.000000E+00
   1.500000E+01   1.000000E-01   5.878900E-05   8.709800E-06   1.000000E+00
   1.520000E+01   1.000000E-01   3.541000E-05   7.804400E-06   1.000000E+00
   1.540000E+01   1.000000E-01   2.301300E-05   4.865900E-06   1.000000E+00
   1.560000E+01   1.000000E-01   1.394400E-05   5.068900E-06   1.000000E+00
# reference:
#   author: S.Matsuyama,T.Okubo,M.Baba,T.Ito,T.Akiyama,N.Ito,  N.Hirakawa
#   title: Measurement of double-differential neutron emission  cross sections of Mo, Ta and W
#   journal: Conf: JAERI-M Reports, No.93-046, p.345 (1993)
