# header: 
#   title: Mo0(n,xn) emission spectrum at  1.410000E+01 MeV
#   source: EXFOR
#   user: Arjan Koning
#   date: 2025-12-18
#   format: YANDF-0.4
# exfor: 
#   author: Matsuyama
#   year: 1993
#   subentry: 22352005
#   X4 reaction: 42-MO-0(N,X)0-NN-1,,DE
#   X4 source: IAEA-NDS C5 file, database version 2023-08-08
#   X4 link: https://nds.iaea.org/EXFOR/22352005
# target: 
#   Z: 42
#   A: 0
#   nuclide: Mo0
# reaction: 
#   type: (n,xn)
#   ENDF_MF: 5
#   ENDF_MT: 201
#   E-incident [MeV]:  1.410000E+01
#   quantity: 
#     type: emission spectrum
#   datablock: 
#     columns: 5
#     entries: 74
##     E-out         dE-out           xs             dxs       Normalization
##     [MeV]          [MeV]       [mb/MeV.sr]    [mb/MeV.sr]        []
   1.000000E+00   1.000000E-01   1.090200E-03   5.489200E-05   1.000000E+00
   1.200000E+00   1.000000E-01   9.430000E-04   4.734300E-05   1.000000E+00
   1.400000E+00   1.000000E-01   8.028000E-04   4.123200E-05   1.000000E+00
   1.600000E+00   1.000000E-01   7.032700E-04   3.547000E-05   1.000000E+00
   1.800000E+00   1.000000E-01   5.963600E-04   3.001300E-05   1.000000E+00
   2.000000E+00   1.000000E-01   5.308100E-04   2.674600E-05   1.000000E+00
   2.200000E+00   1.000000E-01   4.721800E-04   2.413400E-05   1.000000E+00
   2.400000E+00   1.000000E-01   4.320100E-04   2.231200E-05   1.000000E+00
   2.600000E+00   1.000000E-01   3.740400E-04   1.884100E-05   1.000000E+00
   2.800000E+00   1.000000E-01   3.065100E-04   1.558300E-05   1.000000E+00
   3.000000E+00   1.000000E-01   2.584400E-04   1.341100E-05   1.000000E+00
   3.200000E+00   1.000000E-01   2.281000E-04   1.171300E-05   1.000000E+00
   3.400000E+00   1.000000E-01   1.927200E-04   9.971800E-06   1.000000E+00
   3.600000E+00   1.000000E-01   1.614000E-04   8.379900E-06   1.000000E+00
   3.800000E+00   1.000000E-01   1.453100E-04   7.302000E-06   1.000000E+00
   4.000000E+00   1.000000E-01   1.306800E-04   6.622400E-06   1.000000E+00
   4.200000E+00   1.000000E-01   1.165300E-04   6.082500E-06   1.000000E+00
   4.400000E+00   1.000000E-01   1.072700E-04   5.808300E-06   1.000000E+00
   4.600000E+00   1.000000E-01   9.561100E-05   5.273600E-06   1.000000E+00
   4.800000E+00   1.000000E-01   8.739600E-05   4.725800E-06   1.000000E+00
   5.000000E+00   1.000000E-01   7.840900E-05   4.354700E-06   1.000000E+00
   5.200000E+00   1.000000E-01   6.903600E-05   3.728600E-06   1.000000E+00
   5.400000E+00   1.000000E-01   6.277900E-05   3.704900E-06   1.000000E+00
   5.600000E+00   1.000000E-01   5.826500E-05   3.458600E-06   1.000000E+00
   5.800000E+00   1.000000E-01   5.458400E-05   3.118500E-06   1.000000E+00
   6.000000E+00   1.000000E-01   5.009300E-05   3.006100E-06   1.000000E+00
   6.200000E+00   1.000000E-01   4.505800E-05   3.144800E-06   1.000000E+00
   6.400000E+00   1.000000E-01   4.216500E-05   2.592700E-06   1.000000E+00
   6.600000E+00   1.000000E-01   4.333100E-05   2.415900E-06   1.000000E+00
   6.800000E+00   1.000000E-01   4.092100E-05   2.476700E-06   1.000000E+00
   7.000000E+00   1.000000E-01   3.736100E-05   2.277400E-06   1.000000E+00
   7.200000E+00   1.000000E-01   3.576000E-05   2.394400E-06   1.000000E+00
   7.400000E+00   1.000000E-01   3.370500E-05   1.923400E-06   1.000000E+00
   7.600000E+00   1.000000E-01   3.066500E-05   2.441900E-06   1.000000E+00
   7.800000E+00   1.000000E-01   3.030300E-05   2.253900E-06   1.000000E+00
   8.000000E+00   1.000005E-01   3.255300E-05   1.909100E-06   1.000000E+00
   8.200000E+00   1.000000E-01   2.969200E-05   1.620200E-06   1.000000E+00
   8.400000E+00   1.000000E-01   2.996500E-05   1.772000E-06   1.000000E+00
   8.600000E+00   1.000000E-01   2.933600E-05   2.098900E-06   1.000000E+00
   8.800000E+00   1.000000E-01   2.653800E-05   1.743700E-06   1.000000E+00
   9.000000E+00   1.000000E-01   2.442000E-05   1.820500E-06   1.000000E+00
   9.200000E+00   1.000000E-01   2.422800E-05   1.504400E-06   1.000000E+00
   9.400000E+00   1.000000E-01   2.374000E-05   1.455800E-06   1.000000E+00
   9.600000E+00   1.000000E-01   2.522300E-05   2.097800E-06   1.000000E+00
   9.800000E+00   1.000000E-01   2.338000E-05   1.779100E-06   1.000000E+00
   1.000000E+01   1.000000E-01   2.278800E-05   2.861400E-06   1.000000E+00
   1.020000E+01   1.000000E-01   2.408400E-05   2.592900E-06   1.000000E+00
   1.040000E+01   1.000000E-01   2.421700E-05   1.628800E-06   1.000000E+00
   1.060000E+01   1.000000E-01   2.714400E-05   1.779700E-06   1.000000E+00
   1.080000E+01   1.000000E-01   3.407900E-05   1.776900E-06   1.000000E+00
   1.100000E+01   1.000000E-01   4.123900E-05   2.557300E-06   1.000000E+00
   1.120000E+01   1.000000E-01   4.973900E-05   3.403700E-06   1.000000E+00
   1.140000E+01   1.000000E-01   5.612500E-05   3.128900E-06   1.000000E+00
   1.160000E+01   1.000000E-01   5.700800E-05   3.515700E-06   1.000000E+00
   1.180000E+01   1.000000E-01   5.265000E-05   4.150600E-06   1.000000E+00
   1.200000E+01   1.000000E-01   4.366900E-05   4.052100E-06   1.000000E+00
   1.220000E+01   1.000000E-01   3.884200E-05   5.870000E-06   1.000000E+00
   1.240000E+01   1.000000E-01   3.998800E-05   8.739699E-06   1.000000E+00
   1.260000E+01   1.000000E-01   4.265300E-05   1.132400E-05   1.000000E+00
   1.280000E+01   1.000000E-01   5.342600E-05   1.369800E-05   1.000000E+00
   1.300000E+01   1.000000E-01   7.304900E-05   1.771900E-05   1.000000E+00
   1.320000E+01   1.000000E-01   1.014000E-04   2.560700E-05   1.000000E+00
   1.340000E+01   1.000000E-01   1.501700E-04   3.574600E-05   1.000000E+00
   1.360000E+01   1.000000E-01   1.986400E-04   4.086400E-05   1.000000E+00
   1.380000E+01   1.000000E-01   2.195000E-04   4.010200E-05   1.000000E+00
   1.400000E+01   1.000000E-01   1.745500E-04   3.137700E-05   1.000000E+00
   1.420000E+01   1.000000E-01   1.089700E-04   2.210200E-05   1.000000E+00
   1.440000E+01   1.000000E-01   6.091100E-05   1.505300E-05   1.000000E+00
   1.460000E+01   1.000000E-01   3.370300E-05   1.137500E-05   1.000000E+00
   1.480000E+01   1.000000E-01   1.923500E-05   8.876900E-06   1.000000E+00
   1.500000E+01   1.000000E-01   1.188400E-05   7.438700E-06   1.000000E+00
   1.520000E+01   1.000000E-01   9.208200E-06   5.253400E-06   1.000000E+00
   1.540000E+01   1.000000E-01   6.422200E-06   3.725100E-06   1.000000E+00
   1.560000E+01   1.000000E-01   3.830400E-06   6.007800E-06   1.000000E+00
# reference:
#   author: S.Matsuyama,T.Okubo,M.Baba,T.Ito,T.Akiyama,N.Ito,  N.Hirakawa
#   title: Measurement of double-differential neutron emission  cross sections of Mo, Ta and W
#   journal: Conf: JAERI-M Reports, No.93-046, p.345 (1993)
