# header:
#   title: Ni60(p,res) resonance parameter
#   source: EXFOR
#   user: Arjan Koning
#   date: 2024-01-18
#   format: YANDF-0.1
# exfor:
#   author: Arai
#   year: 1976
#   subentry: E14940111
#   X4 reaction: 28-NI-60(P,TOT),,WID
#   X4 source: IAEA-NDS C5 file, database version 2023-08-08
#   X4 link: https://nds.iaea.org/EXFOR/E14940111
# target:
#   Z: 28
#   A: 60
#   nuclide: Ni60
# reaction:
#   type: (p,res)
#   ENDF_MF: 402
#   ENDF_MT: 151
# datablock:
#   quantity: resonance parameter
#   columns: 5
#   entries: 36
##       E             dE             par           dpar       Normalization
##     [eV]           [eV]            []             []             []
   3.103000E+00   0.000000E+00   4.000000E+01   0.000000E+00   1.000000E+00
   3.170500E+00   0.000000E+00   2.500000E+02   0.000000E+00   1.000000E+00
   3.199800E+00   0.000000E+00   3.500000E+01   0.000000E+00   1.000000E+00
   3.256200E+00   0.000000E+00   3.000000E+01   0.000000E+00   1.000000E+00
   3.326900E+00   0.000000E+00   5.000000E+01   0.000000E+00   1.000000E+00
   3.348800E+00   0.000000E+00   4.000000E+01   0.000000E+00   1.000000E+00
   3.370500E+00   0.000000E+00   4.000000E+01   0.000000E+00   1.000000E+00
   3.391700E+00   0.000000E+00   4.000000E+01   0.000000E+00   1.000000E+00
   3.398800E+00   0.000000E+00   2.000000E+01   0.000000E+00   1.000000E+00
   3.421000E+00   0.000000E+00   1.500000E+01   0.000000E+00   1.000000E+00
   3.422700E+00   0.000000E+00   4.000000E+01   0.000000E+00   1.000000E+00
   3.430000E+00   0.000000E+00   4.000000E+01   0.000000E+00   1.000000E+00
   3.479300E+00   0.000000E+00   4.000000E+01   0.000000E+00   1.000000E+00
   3.507700E+00   0.000000E+00   4.000000E+01   0.000000E+00   1.000000E+00
   3.530200E+00   0.000000E+00   4.000000E+01   0.000000E+00   1.000000E+00
   3.548200E+00   0.000000E+00   2.000000E+01   0.000000E+00   1.000000E+00
   3.566000E+00   0.000000E+00   4.000000E+01   0.000000E+00   1.000000E+00
   3.620300E+00   0.000000E+00   6.000000E+01   0.000000E+00   1.000000E+00
   3.623900E+00   0.000000E+00   4.000000E+01   0.000000E+00   1.000000E+00
   3.675500E+00   0.000000E+00   1.094000E+02   1.030000E+01   1.000000E+00
   3.687200E+00   0.000000E+00   5.640000E+01   7.900000E+00   1.000000E+00
   3.709000E+00   0.000000E+00   8.000000E+01   0.000000E+00   1.000000E+00
   3.717000E+00   0.000000E+00   6.000000E+01   0.000000E+00   1.000000E+00
   3.720000E+00   0.000000E+00   1.110000E+01   7.000000E-01   1.000000E+00
   3.729300E+00   0.000000E+00   7.100000E+00   5.000000E-01   1.000000E+00
   3.729800E+00   0.000000E+00   1.548000E+02   5.700000E+00   1.000000E+00
   3.734400E+00   0.000000E+00   6.700000E+00   5.000000E-01   1.000000E+00
   3.739100E+00   0.000000E+00   1.222000E+03   5.400000E+01   1.000000E+00
   3.749400E+00   0.000000E+00   5.365000E+02   3.560000E+01   1.000000E+00
   3.759400E+00   0.000000E+00   1.100000E+02   7.000000E+00   1.000000E+00
   3.854100E+00   0.000000E+00   1.910000E+01   3.300000E+00   1.000000E+00
   3.894900E+00   0.000000E+00   8.000000E+01   0.000000E+00   1.000000E+00
   3.957300E+00   0.000000E+00   7.000000E+01   0.000000E+00   1.000000E+00
   3.997100E+00   0.000000E+00   4.000000E+01   0.000000E+00   1.000000E+00
   3.999900E+00   0.000000E+00   1.600000E+02   0.000000E+00   1.000000E+00
   4.008400E+00   0.000000E+00   6.000000E+01   0.000000E+00   1.000000E+00
# reference:
#   author: E.Arai, M.Ogawa, H.Sato
#   title: High-resolution measurements of analogue states in 59, 61, 63Cu
#   journal: Jour: Nuclear Physics, Section A, Vol.256, Issue.1, p.127 (1976)
