# header: 
#   title: Zr93(n,res) resonance parameter
#   source: EXFOR
#   user: Arjan Koning
#   date: 2025-10-25
#   format: YANDF-0.4
# exfor: 
#   author: Macklin
#   year: 1985
#   subentry: 129150023
#   X4 reaction: 40-ZR-93(N,TOT),,WID
#   X4 source: IAEA-NDS C5 file, database version 2023-08-08
#   X4 link: https://nds.iaea.org/EXFOR/129150023
# target: 
#   Z: 40
#   A: 93
#   nuclide: Zr93
# reaction: 
#   type: (n,res)
#   ENDF_MF: 402
#   ENDF_MT: 151
#   quantity: 
#     type: resonance parameter
#   datablock: 
#     columns: 5
#     entries: 25
##       E             dE             par           dpar       Normalization
##     [eV]           [eV]            []             []             []
   1.104000E-04   0.000000E+00   5.180000E-01   5.000000E-03   1.000000E+00
   2.251000E-04   0.000000E+00   2.790000E-01   7.000000E-03   1.000000E+00
   6.935000E-04   0.000000E+00   7.940000E-01   6.000000E-03   1.000000E+00
   2.053700E-03   0.000000E+00   1.170000E+00   2.000000E-02   1.000000E+00
   3.010000E-03   0.000000E+00   2.050000E+00   4.000000E-02   1.000000E+00
   3.253000E-03   0.000000E+00   8.900000E-01   2.000000E-02   1.000000E+00
   3.513000E-03   0.000000E+00   3.520000E+00   1.200000E-01   1.000000E+00
   3.693000E-03   0.000000E+00   2.970000E+00   1.000000E-01   1.000000E+00
   4.121000E-03   0.000000E+00   3.000000E+00   1.000000E-01   1.000000E+00
   5.013000E-03   0.000000E+00   3.070000E+00   8.000000E-01   1.000000E+00
   5.679000E-03   0.000000E+00   5.900000E+00   4.000000E-01   1.000000E+00
   5.741000E-03   0.000000E+00   4.050000E+00   2.300000E-01   1.000000E+00
   5.914000E-03   0.000000E+00   2.310000E+01   1.900000E+00   1.000000E+00
   7.172000E-03   0.000000E+00   5.600000E+00   3.000000E-01   1.000000E+00
   7.953000E-03   0.000000E+00   1.310000E+01   6.000000E-01   1.000000E+00
   8.641000E-03   0.000000E+00   5.100000E+00   3.000000E-01   1.000000E+00
   1.024500E-02   0.000000E+00   1.290000E+01   1.000000E+00   1.000000E+00
   1.062200E-02   0.000000E+00   1.300000E+01   8.000000E-01   1.000000E+00
   1.110400E-02   0.000000E+00   2.250000E+01   1.900000E+00   1.000000E+00
   1.137100E-02   0.000000E+00   1.100000E+01   1.200000E+00   1.000000E+00
   1.329000E-02   0.000000E+00   3.600000E+01   1.400000E+00   1.000000E+00
   1.339000E-02   0.000000E+00   1.670000E+01   2.200000E+00   1.000000E+00
   1.351000E-02   0.000000E+00   2.500000E+00   6.000000E-01   1.000000E+00
   1.364000E-02   0.000000E+00   3.570000E+01   3.900000E+00   1.000000E+00
   1.439000E-02   0.000000E+00   4.580000E+01   7.900000E+00   1.000000E+00
# reference:
#   author: R.L.MACKLIN
#   title: NEUTRON CAPTURE MEASUREMENTS ON RADIOACTIVE 42-ZR-93.
#   journal: Jour: Astrophysics and Space Science, Vol.115, p.71 (1985)
