# header: 
#   title: Zr93(n,res) resonance parameter
#   source: EXFOR
#   user: Arjan Koning
#   date: 2025-10-25
#   format: YANDF-0.4
# exfor: 
#   author: Macklin
#   year: 1985
#   subentry: 129150024
#   X4 reaction: 40-ZR-93(N,G),,WID
#   X4 source: IAEA-NDS C5 file, database version 2023-08-08
#   X4 link: https://nds.iaea.org/EXFOR/129150024
# target: 
#   Z: 40
#   A: 93
#   nuclide: Zr93
# reaction: 
#   type: (n,res)
#   ENDF_MF: 402
#   ENDF_MT: 151
#   quantity: 
#     type: resonance parameter
#   datablock: 
#     columns: 5
#     entries: 90
##       E             dE             par           dpar       Normalization
##     [eV]           [eV]            []             []             []
   1.104000E-04   0.000000E+00   1.070000E-01   2.000000E-03   1.000000E+00
   2.251000E-04   0.000000E+00   2.650000E-01   7.000000E-03   1.000000E+00
   6.935000E-04   0.000000E+00   1.120000E-01   1.000000E-03   1.000000E+00
   2.053700E-03   0.000000E+00   9.500001E-02   2.000000E-03   1.000000E+00
   3.010000E-03   0.000000E+00   1.180000E-01   2.000000E-03   1.000000E+00
   3.253000E-03   0.000000E+00   2.190000E-01   1.700000E-02   1.000000E+00
   3.513000E-03   0.000000E+00   1.230000E-01   3.000000E-03   1.000000E+00
   3.693000E-03   0.000000E+00   1.420000E-01   3.000000E-03   1.000000E+00
   3.701000E-03   0.000000E+00   7.300001E-02   3.000000E-03   1.000000E+00
   3.998000E-03   0.000000E+00   1.290000E-01   3.000000E-03   1.000000E+00
   4.121000E-03   0.000000E+00   2.570000E-01   8.000000E-03   1.000000E+00
   4.157000E-03   0.000000E+00   1.470000E-01   4.000000E-03   1.000000E+00
   4.322000E-03   0.000000E+00   1.160000E-01   9.000000E-03   1.000000E+00
   4.485000E-03   0.000000E+00   1.640000E-01   4.000000E-03   1.000000E+00
   4.578000E-03   0.000000E+00   1.150000E-01   3.000000E-03   1.000000E+00
   5.013000E-03   0.000000E+00   1.470000E-01   3.000000E-03   1.000000E+00
   5.031000E-03   0.000000E+00   1.010000E-01   4.000000E-03   1.000000E+00
   5.135000E-03   0.000000E+00   1.220000E-01   3.000000E-03   1.000000E+00
   5.542000E-03   0.000000E+00   9.100001E-02   5.000000E-03   1.000000E+00
   5.679000E-03   0.000000E+00   1.210000E-01   4.000000E-03   1.000000E+00
   5.741000E-03   0.000000E+00   1.060000E-01   4.000000E-03   1.000000E+00
   5.914000E-03   0.000000E+00   2.460000E-01   1.100000E-02   1.000000E+00
   5.924000E-03   0.000000E+00   6.300000E-02   6.000000E-03   1.000000E+00
   6.112000E-03   0.000000E+00   9.200001E-02   6.000000E-03   1.000000E+00
   6.211000E-03   0.000000E+00   1.080000E-01   6.000000E-03   1.000000E+00
   6.342000E-03   0.000000E+00   1.300000E-01   6.000000E-03   1.000000E+00
   6.379000E-03   0.000000E+00   1.090000E-01   6.000000E-03   1.000000E+00
   6.641000E-03   0.000000E+00   2.550000E-01   1.600000E-02   1.000000E+00
   6.770000E-03   0.000000E+00   1.150000E-01   7.000000E-03   1.000000E+00
   7.172000E-03   0.000000E+00   2.070000E-01   7.000000E-03   1.000000E+00
   7.413000E-03   0.000000E+00   9.300000E-02   5.000000E-03   1.000000E+00
   7.776000E-03   0.000000E+00   1.040000E-01   1.000000E-02   1.000000E+00
   7.896000E-03   0.000000E+00   1.430000E-01   7.000000E-03   1.000000E+00
   7.953000E-03   0.000000E+00   3.350000E-01   1.000000E-02   1.000000E+00
   8.472000E-03   0.000000E+00   1.130000E-01   6.000000E-03   1.000000E+00
   8.579000E-03   0.000000E+00   1.170000E-01   6.000000E-03   1.000000E+00
   8.641000E-03   0.000000E+00   1.780000E-01   8.000000E-03   1.000000E+00
   9.530000E-03   0.000000E+00   1.400000E-01   7.000000E-03   1.000000E+00
   9.816000E-03   0.000000E+00   1.020000E-01   1.300000E-02   1.000000E+00
   9.851000E-03   0.000000E+00   1.470000E-01   9.000000E-03   1.000000E+00
   1.024500E-02   0.000000E+00   1.870000E-01   9.000000E-03   1.000000E+00
   1.036400E-02   0.000000E+00   1.160000E-01   7.000000E-03   1.000000E+00
   1.042100E-02   0.000000E+00   1.310000E-01   7.000000E-03   1.000000E+00
   1.062200E-02   0.000000E+00   2.090000E-01   9.000000E-03   1.000000E+00
   1.078800E-02   0.000000E+00   1.670000E-01   8.000000E-03   1.000000E+00
   1.085400E-02   0.000000E+00   1.070000E-01   6.000000E-03   1.000000E+00
   1.110400E-02   0.000000E+00   3.510000E-01   1.800000E-02   1.000000E+00
   1.137100E-02   0.000000E+00   1.360000E-01   9.000000E-03   1.000000E+00
   1.150000E-02   0.000000E+00   1.690000E-01   9.000000E-03   1.000000E+00
   1.172000E-02   0.000000E+00   2.070000E-01   1.000000E-02   1.000000E+00
   1.176000E-02   0.000000E+00   1.430000E-01   9.000000E-03   1.000000E+00
   1.194000E-02   0.000000E+00   2.610000E-01   1.800000E-02   1.000000E+00
   1.224000E-02   0.000000E+00   1.510000E-01   1.300000E-02   1.000000E+00
   1.246000E-02   0.000000E+00   1.100000E-01   1.100000E-02   1.000000E+00
   1.250000E-02   0.000000E+00   1.540000E-01   1.800000E-02   1.000000E+00
   1.266000E-02   0.000000E+00   1.070000E-01   1.400000E-02   1.000000E+00
   1.317000E-02   0.000000E+00   1.400000E-01   1.300000E-02   1.000000E+00
   1.329000E-02   0.000000E+00   1.600000E-01   3.300000E-02   1.000000E+00
   1.344000E-02   0.000000E+00   1.150000E-01   1.100000E-02   1.000000E+00
   1.351000E-02   0.000000E+00   1.490000E-01   2.700000E-02   1.000000E+00
   1.364000E-02   0.000000E+00   4.030000E-01   2.700000E-02   1.000000E+00
   1.384000E-02   0.000000E+00   3.060000E-01   1.500000E-02   1.000000E+00
   1.439000E-02   0.000000E+00   2.100000E-01   2.400000E-02   1.000000E+00
   1.465000E-02   0.000000E+00   1.250000E-01   9.000000E-03   1.000000E+00
   1.526000E-02   0.000000E+00   1.250000E-01   2.000000E-02   1.000000E+00
   1.558000E-02   0.000000E+00   1.890000E-01   2.200000E-02   1.000000E+00
   1.591000E-02   0.000000E+00   2.170000E-01   2.100000E-02   1.000000E+00
   1.619000E-02   0.000000E+00   2.690000E-01   3.700000E-02   1.000000E+00
   1.645000E-02   0.000000E+00   1.590000E-01   2.000000E-02   1.000000E+00
   1.654000E-02   0.000000E+00   1.030000E-01   1.900000E-02   1.000000E+00
   1.660000E-02   0.000000E+00   1.110000E-01   1.700000E-02   1.000000E+00
   1.713000E-02   0.000000E+00   1.700000E-01   3.300000E-02   1.000000E+00
   1.744000E-02   0.000000E+00   1.010000E-01   3.400000E-02   1.000000E+00
   1.757000E-02   0.000000E+00   1.520000E-01   2.200000E-02   1.000000E+00
   1.808000E-02   0.000000E+00   1.250000E-01   1.300000E-02   1.000000E+00
   1.826000E-02   0.000000E+00   2.480000E-01   1.800000E-02   1.000000E+00
   1.843000E-02   0.000000E+00   1.010000E-01   1.100000E-02   1.000000E+00
   1.855000E-02   0.000000E+00   1.420000E-01   2.200000E-02   1.000000E+00
   1.860000E-02   0.000000E+00   1.170000E-01   1.600000E-02   1.000000E+00
   1.867000E-02   0.000000E+00   1.880000E-01   2.500000E-02   1.000000E+00
   1.900000E-02   0.000000E+00   1.410000E-01   1.400000E-02   1.000000E+00
   1.907000E-02   0.000000E+00   2.360000E-01   2.900000E-02   1.000000E+00
   1.932000E-02   0.000000E+00   1.010000E-01   1.300000E-02   1.000000E+00
   1.943000E-02   0.000000E+00   1.330000E-01   1.800000E-02   1.000000E+00
   1.970000E-02   0.000000E+00   2.780000E-01   2.600000E-02   1.000000E+00
   2.022000E-02   0.000000E+00   1.870000E-01   3.600000E-02   1.000000E+00
   2.032000E-02   0.000000E+00   1.730000E-01   2.900000E-02   1.000000E+00
   2.083000E-02   0.000000E+00   2.580000E-01   3.400000E-02   1.000000E+00
   2.109000E-02   0.000000E+00   3.460000E-01   2.700000E-02   1.000000E+00
   2.144000E-02   0.000000E+00   2.800000E-01   2.400000E-02   1.000000E+00
# reference:
#   author: R.L.MACKLIN
#   title: NEUTRON CAPTURE MEASUREMENTS ON RADIOACTIVE 42-ZR-93.
#   journal: Jour: Astrophysics and Space Science, Vol.115, p.71 (1985)
