# header: 
#   title: Sn0(n,xn) emission spectrum at  1.410000E+01 MeV
#   source: EXFOR
#   user: Arjan Koning
#   date: 2025-12-18
#   format: YANDF-0.4
# exfor: 
#   author: Takahashi
#   year: 1992
#   subentry: 221860731
#   X4 reaction: 50-SN-0(N,X)0-NN-1,,DE
#   X4 source: IAEA-NDS C5 file, database version 2023-08-08
#   X4 link: https://nds.iaea.org/EXFOR/221860731
# target: 
#   Z: 50
#   A: 0
#   nuclide: Sn0
# reaction: 
#   type: (n,xn)
#   ENDF_MF: 5
#   ENDF_MT: 201
#   E-incident [MeV]:  1.410000E+01
#   quantity: 
#     type: emission spectrum
#   datablock: 
#     columns: 5
#     entries: 70
##     E-out         dE-out           xs             dxs       Normalization
##     [MeV]          [MeV]       [mb/MeV.sr]    [mb/MeV.sr]        []
   9.000000E-01   1.000000E-01   1.890000E-03   1.080000E-05   1.000000E+00
   1.100000E+00   1.000000E-01   1.600000E-03   8.300000E-06   1.000000E+00
   1.300000E+00   1.000000E-01   1.270000E-03   5.340000E-06   1.000000E+00
   1.500000E+00   1.000000E-01   1.100000E-03   4.650000E-06   1.000000E+00
   1.700000E+00   1.000000E-01   9.180000E-04   4.120000E-06   1.000000E+00
   1.900000E+00   1.000000E-01   7.570000E-04   3.780000E-06   1.000000E+00
   2.100000E+00   1.000000E-01   6.280000E-04   3.440000E-06   1.000000E+00
   2.300000E+00   1.000000E-01   5.220000E-04   3.250000E-06   1.000000E+00
   2.500000E+00   1.000000E-01   4.270000E-04   3.120000E-06   1.000000E+00
   2.700000E+00   1.000000E-01   3.520000E-04   2.850000E-06   1.000000E+00
   2.900000E+00   1.000000E-01   2.930000E-04   2.600000E-06   1.000000E+00
   3.100000E+00   1.000000E-01   2.430000E-04   2.440000E-06   1.000000E+00
   3.300000E+00   1.000000E-01   2.030000E-04   2.320000E-06   1.000000E+00
   3.500000E+00   1.000000E-01   1.740000E-04   2.210000E-06   1.000000E+00
   3.700000E+00   1.000000E-01   1.520000E-04   2.130000E-06   1.000000E+00
   3.900000E+00   1.000000E-01   1.320000E-04   2.080000E-06   1.000000E+00
   4.100000E+00   1.000000E-01   1.210000E-04   2.010000E-06   1.000000E+00
   4.300000E+00   1.000000E-01   1.100000E-04   1.950000E-06   1.000000E+00
   4.500000E+00   1.000000E-01   9.470000E-05   1.910000E-06   1.000000E+00
   4.700000E+00   1.000000E-01   8.840000E-05   1.860000E-06   1.000000E+00
   4.900000E+00   1.000000E-01   7.810000E-05   1.810000E-06   1.000000E+00
   5.100000E+00   1.000000E-01   6.800000E-05   1.790000E-06   1.000000E+00
   5.300000E+00   1.000000E-01   5.900000E-05   1.740000E-06   1.000000E+00
   5.500000E+00   1.000000E-01   5.890000E-05   1.720000E-06   1.000000E+00
   5.700000E+00   1.000000E-01   5.440000E-05   1.700000E-06   1.000000E+00
   5.900000E+00   1.000000E-01   5.610000E-05   1.670000E-06   1.000000E+00
   6.100000E+00   1.000000E-01   5.200000E-05   1.650000E-06   1.000000E+00
   6.300000E+00   1.000000E-01   5.590000E-05   1.650000E-06   1.000000E+00
   6.500000E+00   1.000000E-01   5.310000E-05   1.640000E-06   1.000000E+00
   6.700000E+00   1.000000E-01   4.820000E-05   1.610000E-06   1.000000E+00
   6.900000E+00   1.000000E-01   4.940000E-05   1.610000E-06   1.000000E+00
   7.100000E+00   1.000000E-01   5.070000E-05   1.630000E-06   1.000000E+00
   7.300000E+00   1.000000E-01   4.450000E-05   1.630000E-06   1.000000E+00
   7.500000E+00   1.000000E-01   4.300000E-05   1.620000E-06   1.000000E+00
   7.700000E+00   1.000000E-01   3.830000E-05   1.610000E-06   1.000000E+00
   7.900000E+00   1.000000E-01   3.750000E-05   1.590000E-06   1.000000E+00
   8.100000E+00   1.000000E-01   3.490000E-05   1.600000E-06   1.000000E+00
   8.300000E+00   1.000000E-01   3.320000E-05   1.570000E-06   1.000000E+00
   8.500000E+00   1.000000E-01   3.540000E-05   1.560000E-06   1.000000E+00
   8.700000E+00   1.000000E-01   3.630000E-05   1.540000E-06   1.000000E+00
   8.900000E+00   1.000000E-01   3.500000E-05   1.500000E-06   1.000000E+00
   9.100000E+00   1.000000E-01   3.660000E-05   1.480000E-06   1.000000E+00
   9.300000E+00   1.000000E-01   3.690000E-05   1.470000E-06   1.000000E+00
   9.500000E+00   1.000000E-01   3.390000E-05   1.440000E-06   1.000000E+00
   9.700000E+00   1.000000E-01   3.320000E-05   1.420000E-06   1.000000E+00
   9.900000E+00   1.000000E-01   3.460000E-05   1.430000E-06   1.000000E+00
   1.010000E+01   1.000000E-01   3.570000E-05   1.420000E-06   1.000000E+00
   1.030000E+01   1.000000E-01   3.640000E-05   1.440000E-06   1.000000E+00
   1.050000E+01   1.000000E-01   3.710000E-05   1.440000E-06   1.000000E+00
   1.070000E+01   1.000000E-01   3.650000E-05   1.450000E-06   1.000000E+00
   1.090000E+01   1.000000E-01   4.390000E-05   1.470000E-06   1.000000E+00
   1.110000E+01   1.000000E-01   5.570000E-05   1.520000E-06   1.000000E+00
   1.130000E+01   1.000000E-01   6.860000E-05   1.600000E-06   1.000000E+00
   1.150000E+01   1.000000E-01   8.240000E-05   1.690000E-06   1.000000E+00
   1.170000E+01   1.000000E-01   7.990000E-05   1.720000E-06   1.000000E+00
   1.190000E+01   1.000000E-01   7.270000E-05   1.720000E-06   1.000000E+00
   1.210000E+01   1.000000E-01   6.860000E-05   1.760000E-06   1.000000E+00
   1.230000E+01   1.000000E-01   7.730000E-05   1.840000E-06   1.000000E+00
   1.250000E+01   1.000000E-01   1.020000E-04   1.930000E-06   1.000000E+00
   1.270000E+01   1.000000E-01   1.260000E-04   2.070000E-06   1.000000E+00
   1.290000E+01   1.000000E-01   1.610000E-04   2.210000E-06   1.000000E+00
   1.310000E+01   1.000000E-01   2.290000E-04   2.410000E-06   1.000000E+00
   1.330000E+01   1.000000E-01   3.790000E-04   2.770000E-06   1.000000E+00
   1.350000E+01   1.000000E-01   6.860000E-04   3.380000E-06   1.000000E+00
   1.370000E+01   1.000000E-01   1.230000E-03   4.220000E-06   1.000000E+00
   1.390000E+01   1.000000E-01   1.870000E-03   5.130000E-06   1.000000E+00
   1.410000E+01   1.000000E-01   2.260000E-03   5.810000E-06   1.000000E+00
   1.430000E+01   1.000000E-01   1.970000E-03   6.480000E-06   1.000000E+00
   1.450000E+01   1.000000E-01   1.140000E-03   5.800000E-06   1.000000E+00
   1.470000E+01   1.000000E-01   3.900000E-04   7.950000E-06   1.000000E+00
# reference:
#   author: A.Takahashi, M.Gotoh, Y.Sasaki, H.Sugimoto,  K.Yamanaka, H.Kanazawa, F.Maekawa
#   title: Measurement of double differential neutron emission  cross sections at 14.1 MeV for Ti, Mo, Sn and Sb
#   journal: Rept: Osaka Univ., OKTAVIAN Reports, No.92-01 (1992)
