# header: 
#   title: Sn116(n,res) resonance parameter
#   source: EXFOR
#   user: Arjan Koning
#   date: 2025-08-01
#   format: YANDF-0.2
# exfor: 
#   author: Koehler
#   year: 2001
#   subentry: 139090055
#   X4 reaction: 50-SN-116(N,G),,WID
#   X4 source: IAEA-NDS C5 file, database version 2023-08-08
#   X4 link: https://nds.iaea.org/EXFOR/139090055
# target: 
#   Z: 50
#   A: 116
#   nuclide: Sn116
# reaction: 
#   type: (n,res)
#   ENDF_MF: 402
#   ENDF_MT: 151
#   quantity: 
#     type: resonance parameter
#   datablock: 
#     columns: 5
#     entries: 140
##       E             dE             par           dpar       Normalization
##     [eV]           [eV]            []             []             []
   1.112000E-04   0.000000E+00   5.231000E-02   4.600000E-04   1.000000E+00
   1.477000E-04   0.000000E+00   9.210000E-02   7.600000E-03   1.000000E+00
   6.326000E-04   0.000000E+00   1.000000E-01   7.000000E-03   1.000000E+00
   7.482000E-04   0.000000E+00   5.100000E-02   1.300000E-02   1.000000E+00
   7.777000E-04   0.000000E+00   6.500001E-02   1.200000E-02   1.000000E+00
   9.773000E-04   0.000000E+00   1.160000E-01   2.500000E-02   1.000000E+00
   1.338900E-03   0.000000E+00   5.554000E-02   9.400000E-04   1.000000E+00
   1.548100E-03   0.000000E+00   6.200000E-02   8.400000E-04   1.000000E+00
   1.787400E-03   0.000000E+00   6.033001E-02   9.300000E-04   1.000000E+00
   2.017000E-03   0.000000E+00   9.560000E-02   1.000000E-02   1.000000E+00
   2.659400E-03   0.000000E+00   4.980000E-02   1.400000E-03   1.000000E+00
   3.341900E-03   0.000000E+00   4.490000E-02   1.100000E-03   1.000000E+00
   3.360000E-03   0.000000E+00   4.380000E-02   1.400000E-03   1.000000E+00
   4.066500E-03   0.000000E+00   4.740001E-02   2.400000E-03   1.000000E+00
   4.413600E-03   0.000000E+00   9.510001E-02   2.200000E-03   1.000000E+00
   4.573200E-03   0.000000E+00   5.650000E-02   1.700000E-03   1.000000E+00
   5.211400E-03   0.000000E+00   7.150000E-02   2.500000E-03   1.000000E+00
   5.271400E-03   0.000000E+00   7.710000E-02   2.500000E-03   1.000000E+00
   5.568200E-03   0.000000E+00   1.146000E-01   5.100000E-03   1.000000E+00
   5.583500E-03   0.000000E+00   1.140000E-01   6.600000E-03   1.000000E+00
   5.797400E-03   0.000000E+00   7.940000E-02   2.900000E-03   1.000000E+00
   5.876600E-03   0.000000E+00   5.010000E-02   1.900000E-03   1.000000E+00
   6.070100E-03   0.000000E+00   7.990000E-02   4.300000E-03   1.000000E+00
   6.510200E-03   0.000000E+00   5.800000E-02   2.100000E-03   1.000000E+00
   6.664900E-03   0.000000E+00   7.990000E-02   2.600000E-03   1.000000E+00
   6.743300E-03   0.000000E+00   5.140001E-02   2.200000E-03   1.000000E+00
   7.207500E-03   0.000000E+00   9.500001E-02   3.200000E-03   1.000000E+00
   7.405900E-03   0.000000E+00   5.010000E-02   2.200000E-03   1.000000E+00
   7.451800E-03   0.000000E+00   7.510000E-02   2.500000E-03   1.000000E+00
   7.858500E-03   0.000000E+00   4.980000E-02   2.300000E-03   1.000000E+00
   8.536399E-03   0.000000E+00   5.090000E-02   2.500000E-03   1.000000E+00
   8.693300E-03   0.000000E+00   1.002000E-01   5.200000E-03   1.000000E+00
   8.834000E-03   0.000000E+00   8.660001E-02   4.400000E-03   1.000000E+00
   8.866700E-03   0.000000E+00   9.160000E-02   4.700000E-03   1.000000E+00
   8.919500E-03   0.000000E+00   6.060000E-02   3.100000E-03   1.000000E+00
   9.256300E-03   0.000000E+00   5.980000E-02   3.000000E-03   1.000000E+00
   9.327200E-03   0.000000E+00   5.810000E-02   2.300000E-03   1.000000E+00
   9.428900E-03   0.000000E+00   4.410000E-02   2.800000E-03   1.000000E+00
   1.020080E-02   0.000000E+00   5.400001E-02   4.000000E-03   1.000000E+00
   1.036480E-02   0.000000E+00   7.720000E-02   5.700000E-03   1.000000E+00
   1.073510E-02   0.000000E+00   7.020000E-02   3.900000E-03   1.000000E+00
   1.082510E-02   0.000000E+00   6.130000E-02   3.700000E-03   1.000000E+00
   1.098930E-02   0.000000E+00   5.770000E-02   3.000000E-03   1.000000E+00
   1.111590E-02   0.000000E+00   5.910000E-02   5.000000E-03   1.000000E+00
   1.139600E-02   0.000000E+00   8.690000E-02   4.400000E-03   1.000000E+00
   1.169350E-02   0.000000E+00   5.320000E-02   3.700000E-03   1.000000E+00
   1.217750E-02   0.000000E+00   6.380000E-02   5.100000E-03   1.000000E+00
   1.219890E-02   0.000000E+00   1.095000E-01   8.100000E-03   1.000000E+00
   1.225360E-02   0.000000E+00   7.880001E-02   4.000000E-03   1.000000E+00
   1.264490E-02   0.000000E+00   7.110000E-02   5.300000E-03   1.000000E+00
   1.268690E-02   0.000000E+00   6.620000E-02   3.300000E-03   1.000000E+00
   1.291680E-02   0.000000E+00   7.010000E-02   4.000000E-03   1.000000E+00
   1.303650E-02   0.000000E+00   8.070000E-02   3.600000E-03   1.000000E+00
   1.314060E-02   0.000000E+00   8.090001E-02   4.600000E-03   1.000000E+00
   1.338700E-02   0.000000E+00   1.009000E-01   5.300000E-03   1.000000E+00
   1.386040E-02   0.000000E+00   7.480001E-02   3.700000E-03   1.000000E+00
   1.390400E-02   0.000000E+00   5.410000E-02   4.600000E-03   1.000000E+00
   1.405450E-02   0.000000E+00   6.810001E-02   6.300000E-03   1.000000E+00
   1.443120E-02   0.000000E+00   9.770000E-02   9.000000E-03   1.000000E+00
   1.471430E-02   0.000000E+00   9.070000E-02   5.600000E-03   1.000000E+00
   1.550220E-02   0.000000E+00   7.390001E-02   5.900000E-03   1.000000E+00
   1.552090E-02   0.000000E+00   8.170000E-02   7.800000E-03   1.000000E+00
   1.572510E-02   0.000000E+00   1.090000E-01   9.500000E-03   1.000000E+00
   1.574850E-02   0.000000E+00   1.325000E-01   7.100000E-03   1.000000E+00
   1.613080E-02   0.000000E+00   4.740001E-02   5.600000E-03   1.000000E+00
   1.627210E-02   0.000000E+00   7.330000E-02   4.900000E-03   1.000000E+00
   1.653750E-02   0.000000E+00   4.540000E-02   5.100000E-03   1.000000E+00
   1.657280E-02   0.000000E+00   6.370001E-02   5.500000E-03   1.000000E+00
   1.675380E-02   0.000000E+00   7.000001E-02   1.800000E-02   1.000000E+00
   1.716980E-02   0.000000E+00   8.830001E-02   8.200000E-03   1.000000E+00
   1.740620E-02   0.000000E+00   5.280000E-02   8.100000E-03   1.000000E+00
   1.759780E-02   0.000000E+00   4.500000E-02   5.100000E-03   1.000000E+00
   1.764470E-02   0.000000E+00   8.110000E-02   7.300000E-03   1.000000E+00
   1.796960E-02   0.000000E+00   1.079000E-01   6.100000E-03   1.000000E+00
   1.803200E-02   0.000000E+00   6.300000E-02   1.100000E-02   1.000000E+00
   1.818750E-02   0.000000E+00   1.000000E-01   7.500000E-03   1.000000E+00
   1.827500E-02   0.000000E+00   1.100000E-01   1.500000E-02   1.000000E+00
   1.836320E-02   0.000000E+00   9.470000E-02   6.300000E-03   1.000000E+00
   1.849020E-02   0.000000E+00   5.990000E-02   4.000000E-03   1.000000E+00
   1.905220E-02   0.000000E+00   1.049000E-01   9.400000E-03   1.000000E+00
   1.919000E-02   0.000000E+00   4.120000E-02   6.200000E-03   1.000000E+00
   1.949380E-02   0.000000E+00   6.180000E-02   7.600000E-03   1.000000E+00
   1.952500E-02   0.000000E+00   8.940001E-02   0.000000E+00   1.000000E+00
   1.960540E-02   0.000000E+00   1.280000E-01   2.000000E-02   1.000000E+00
   1.985570E-02   0.000000E+00   1.029000E-01   8.700000E-03   1.000000E+00
   2.050280E-02   0.000000E+00   9.290001E-02   7.100000E-03   1.000000E+00
   2.068150E-02   0.000000E+00   6.710000E-02   5.000000E-03   1.000000E+00
   2.074320E-02   0.000000E+00   5.430000E-02   6.700000E-03   1.000000E+00
   2.108000E-02   0.000000E+00   1.200000E-01   1.900000E-02   1.000000E+00
   2.109900E-02   0.000000E+00   4.750000E-02   8.900000E-03   1.000000E+00
   2.119520E-02   0.000000E+00   7.050000E-02   7.400000E-03   1.000000E+00
   2.129500E-02   0.000000E+00   8.520000E-02   7.200000E-03   1.000000E+00
   2.131810E-02   0.000000E+00   6.070000E-02   9.000000E-03   1.000000E+00
   2.140040E-02   0.000000E+00   6.860000E-02   4.800000E-03   1.000000E+00
   2.148780E-02   0.000000E+00   1.004000E-01   5.600000E-03   1.000000E+00
   2.184230E-02   0.000000E+00   1.170000E-01   1.300000E-02   1.000000E+00
   2.216760E-02   0.000000E+00   6.100000E-02   1.200000E-02   1.000000E+00
   2.220010E-02   0.000000E+00   7.560001E-02   6.400000E-03   1.000000E+00
   2.255860E-02   0.000000E+00   8.500001E-02   8.800000E-03   1.000000E+00
   2.261540E-02   0.000000E+00   1.280000E-01   1.400000E-02   1.000000E+00
   2.305750E-02   0.000000E+00   6.750000E-02   5.600000E-03   1.000000E+00
   2.318230E-02   0.000000E+00   6.250001E-02   5.700000E-03   1.000000E+00
   2.351500E-02   0.000000E+00   8.400001E-02   1.300000E-02   1.000000E+00
   2.356710E-02   0.000000E+00   6.560000E-02   9.200000E-03   1.000000E+00
   2.370650E-02   0.000000E+00   6.640001E-02   8.700000E-03   1.000000E+00
   2.403660E-02   0.000000E+00   7.240000E-02   5.500000E-03   1.000000E+00
   2.415080E-02   0.000000E+00   6.210000E-02   6.000000E-03   1.000000E+00
   2.422800E-02   0.000000E+00   1.160000E-01   1.500000E-02   1.000000E+00
   2.468990E-02   0.000000E+00   8.800001E-02   1.300000E-02   1.000000E+00
   2.473130E-02   0.000000E+00   5.600000E-02   1.400000E-02   1.000000E+00
   2.475000E-02   0.000000E+00   9.300000E-02   1.500000E-02   1.000000E+00
   2.507870E-02   0.000000E+00   1.110000E-01   1.200000E-02   1.000000E+00
   2.538400E-02   0.000000E+00   1.200000E-01   1.800000E-02   1.000000E+00
   2.595210E-02   0.000000E+00   1.014000E-01   8.900000E-03   1.000000E+00
   2.606090E-02   0.000000E+00   7.900000E-02   1.200000E-02   1.000000E+00
   2.618090E-02   0.000000E+00   6.440000E-02   5.700000E-03   1.000000E+00
   2.627500E-02   0.000000E+00   7.200000E-02   1.200000E-02   1.000000E+00
   2.644820E-02   0.000000E+00   7.920000E-02   6.200000E-03   1.000000E+00
   2.663200E-02   0.000000E+00   1.090000E-01   1.100000E-02   1.000000E+00
   2.675160E-02   0.000000E+00   1.040000E-01   1.100000E-02   1.000000E+00
   2.699680E-02   0.000000E+00   5.200000E-02   1.800000E-02   1.000000E+00
   2.700500E-02   0.000000E+00   1.100000E-01   1.500000E-02   1.000000E+00
   2.723600E-02   0.000000E+00   1.080000E-01   2.700000E-02   1.000000E+00
   2.727020E-02   0.000000E+00   8.400001E-02   1.300000E-02   1.000000E+00
   2.748170E-02   0.000000E+00   1.746000E-01   9.600000E-03   1.000000E+00
   2.768770E-02   0.000000E+00   6.500001E-02   1.000000E-02   1.000000E+00
   2.784810E-02   0.000000E+00   8.450001E-02   7.700000E-03   1.000000E+00
   2.787640E-02   0.000000E+00   5.700000E-02   1.500000E-02   1.000000E+00
   2.792800E-02   0.000000E+00   9.400000E-02   1.200000E-02   1.000000E+00
   2.818090E-02   0.000000E+00   9.560000E-02   9.400000E-03   1.000000E+00
   2.821000E-02   0.000000E+00   7.000001E-02   1.300000E-02   1.000000E+00
   2.850720E-02   0.000000E+00   5.960000E-02   7.200000E-03   1.000000E+00
   2.854800E-02   0.000000E+00   1.000000E-01   1.600000E-02   1.000000E+00
   2.860270E-02   0.000000E+00   6.400000E-02   1.100000E-02   1.000000E+00
   2.893000E-02   0.000000E+00   9.500001E-02   1.000000E-02   1.000000E+00
   2.896440E-02   0.000000E+00   1.070000E-01   1.100000E-02   1.000000E+00
   2.911400E-02   0.000000E+00   9.510001E-02   8.000000E-03   1.000000E+00
   2.918620E-02   0.000000E+00   2.350000E-02   5.900000E-03   1.000000E+00
   2.981700E-02   0.000000E+00   1.000000E-01   1.700000E-02   1.000000E+00
   2.981890E-02   0.000000E+00   6.000000E-02   2.300000E-02   1.000000E+00
# reference:
#   author: P.E.Koehler,J.A.Harvey,R.R.Winters,K.H.Guber, R.R.Spencer
#   title: High-resolution neutron capture and transmission measurements for 116,120Sn, and their stellar neutron-capture cross sections at s-process temperatures
#   journal: Jour: Physical Review, Part C, Nuclear Physics, Vol.64, p.065802 (2001)
