# header: 
#   title: Rb85(n,res) resonance parameter
#   source: EXFOR
#   user: Arjan Koning
#   date: 2025-12-18
#   format: YANDF-0.4
# exfor: 
#   author: Beer
#   year: 1989
#   subentry: 131770043
#   X4 reaction: 37-RB-85(N,EL),,WID,,G
#   X4 source: IAEA-NDS C5 file, database version 2023-08-08
#   X4 link: https://nds.iaea.org/EXFOR/131770043
# target: 
#   Z: 37
#   A: 85
#   nuclide: Rb85
# reaction: 
#   type: (n,res)
#   ENDF_MF: 402
#   ENDF_MT: 151
#   quantity: 
#     type: resonance parameter
#   datablock: 
#     columns: 5
#     entries: 21
##       E             dE             par           dpar       Normalization
##     [eV]           [eV]            []             []             []
   5.266700E-04   0.000000E+00   8.310000E-01   4.100000E-03   1.000000E+00
   1.041500E-03   0.000000E+00   4.800000E-01   3.600000E-03   1.000000E+00
   1.202800E-03   0.000000E+00   7.150000E-01   6.800000E-03   1.000000E+00
   1.408000E-03   0.000000E+00   2.960000E+00   3.500000E-02   1.000000E+00
   1.670000E-03   0.000000E+00   2.500000E-01   5.100000E-03   1.000000E+00
   1.983800E-03   0.000000E+00   7.350000E-01   6.200000E-03   1.000000E+00
   2.082200E-03   0.000000E+00   1.810000E-01   2.600000E-03   1.000000E+00
   2.398400E-03   0.000000E+00   3.790000E+00   2.600000E-02   1.000000E+00
   2.502700E-03   0.000000E+00   2.550000E-01   3.200000E-03   1.000000E+00
   2.582800E-03   0.000000E+00   9.530000E-01   1.100000E-02   1.000000E+00
   2.994300E-03   0.000000E+00   1.560000E+00   1.300000E-02   1.000000E+00
   3.007800E-03   0.000000E+00   1.140000E+00   1.200000E-02   1.000000E+00
   5.149000E-03   0.000000E+00   1.230000E+00   4.100000E-02   1.000000E+00
   5.599200E-03   0.000000E+00   1.570000E+00   5.100000E-02   1.000000E+00
   9.303000E-03   0.000000E+00   1.220000E+00   7.600000E-02   1.000000E+00
   9.351901E-03   0.000000E+00   4.650000E+00   1.600000E-01   1.000000E+00
   1.547600E-02   0.000000E+00   8.410000E+00   4.600000E-01   1.000000E+00
   1.591400E-02   0.000000E+00   7.260000E+00   4.000000E-01   1.000000E+00
   1.612900E-02   0.000000E+00   7.310000E+00   4.700000E-01   1.000000E+00
   1.619800E-02   0.000000E+00   8.190000E+00   5.600000E-01   1.000000E+00
   1.907700E-02   0.000000E+00   6.320000E+00   2.500000E-01   1.000000E+00
# reference:
#   author: H.BEER,R.L.MACKLIN
#   title: MEASUREMENT OF THE 85RB AND 87RB CAPTURE CROSS SECTIONS  FOR S-PROCESS STUDIES
#   journal: Jour: Astrophysical Journal, Vol.339, p.962 (1989)
