# header: 
#   title: Cr50(p,res) resonance parameter
#   source: EXFOR
#   user: Arjan Koning
#   date: 2025-08-01
#   format: YANDF-0.2
# exfor: 
#   author: Arai
#   year: 1983
#   subentry: E09000121
#   X4 reaction: 24-CR-50(P,TOT),,WID
#   X4 source: IAEA-NDS C5 file, database version 2023-08-08
#   X4 link: https://nds.iaea.org/EXFOR/E09000121
# target: 
#   Z: 24
#   A: 50
#   nuclide: Cr50
# reaction: 
#   type: (p,res)
#   ENDF_MF: 402
#   ENDF_MT: 151
#   quantity: 
#     type: resonance parameter
#   datablock: 
#     columns: 5
#     entries: 27
##       E             dE             par           dpar       Normalization
##     [eV]           [eV]            []             []             []
   3.180700E+00   0.000000E+00   2.900000E+02   2.900000E+01   1.000000E+00
   3.195600E+00   0.000000E+00   2.900000E+02   2.900000E+01   1.000000E+00
   3.198400E+00   0.000000E+00   2.500000E+02   2.500000E+01   1.000000E+00
   3.257300E+00   0.000000E+00   1.000000E+02   1.000000E+01   1.000000E+00
   3.284700E+00   0.000000E+00   3.200000E+02   3.200000E+01   1.000000E+00
   3.290400E+00   0.000000E+00   1.600000E+02   1.600000E+01   1.000000E+00
   3.292800E+00   0.000000E+00   2.200000E+02   2.200000E+01   1.000000E+00
   3.452400E+00   0.000000E+00   1.000000E+02   1.000000E+01   1.000000E+00
   3.473900E+00   0.000000E+00   1.000000E+01   1.000000E+01   1.000000E+00
   3.485600E+00   0.000000E+00   2.000000E+01   1.000000E+01   1.000000E+00
   3.604200E+00   0.000000E+00   5.000000E+01   1.000000E+01   1.000000E+00
   3.649500E+00   0.000000E+00   5.000000E+01   1.000000E+01   1.000000E+00
   3.652000E+00   0.000000E+00   5.000000E+01   1.000000E+01   1.000000E+00
   3.670000E+00   0.000000E+00   5.000000E+01   1.000000E+01   1.000000E+00
   3.723900E+00   0.000000E+00   5.000000E+01   1.000000E+01   1.000000E+00
   3.740300E+00   0.000000E+00   4.000000E+01   1.000000E+01   1.000000E+00
   3.793900E+00   0.000000E+00   5.000000E+01   1.000000E+01   1.000000E+00
   3.828700E+00   0.000000E+00   2.000000E+01   1.000000E+01   1.000000E+00
   3.831000E+00   0.000000E+00   2.000000E+01   1.000000E+01   1.000000E+00
   3.837300E+00   0.000000E+00   7.000000E+01   1.000000E+01   1.000000E+00
   3.857900E+00   0.000000E+00   3.000000E+01   1.000000E+01   1.000000E+00
   3.860900E+00   0.000000E+00   6.000000E+01   1.000000E+01   1.000000E+00
   3.878400E+00   0.000000E+00   4.000000E+01   1.000000E+01   1.000000E+00
   3.903900E+00   0.000000E+00   1.000000E+02   1.000000E+01   1.000000E+00
   3.914300E+00   0.000000E+00   7.000000E+01   1.000000E+01   1.000000E+00
   3.946500E+00   0.000000E+00   5.000000E+01   1.000000E+01   1.000000E+00
   3.970900E+00   0.000000E+00   5.000000E+01   1.000000E+01   1.000000E+00
# reference:
#   author: E.Arai, M.Futakuchi, J.Komaki, M.Ogawa, Y.Oguri
#   title: High-resolution measurements of analogue states in 51Mn
#   journal: Jour: Journal of the Physical Society of Japan, Vol.52, Issue.3, p.802 (
