# header: 
#   title: Cr50(p,res) resonance parameter
#   source: EXFOR
#   user: Arjan Koning
#   date: 2025-12-01
#   format: YANDF-0.4
# exfor: 
#   author: Arai
#   year: 1983
#   subentry: E09000081
#   X4 reaction: 24-CR-50(P,TOT),,WID
#   X4 source: IAEA-NDS C5 file, database version 2023-08-08
#   X4 link: https://nds.iaea.org/EXFOR/E09000081
# target: 
#   Z: 24
#   A: 50
#   nuclide: Cr50
# reaction: 
#   type: (p,res)
#   ENDF_MF: 402
#   ENDF_MT: 151
#   quantity: 
#     type: resonance parameter
#   datablock: 
#     columns: 5
#     entries: 25
##       E             dE             par           dpar       Normalization
##     [eV]           [eV]            []             []             []
   3.159200E+00   0.000000E+00   1.700000E+03   1.700000E+02   1.000000E+00
   3.234400E+00   0.000000E+00   7.000000E+02   7.000000E+01   1.000000E+00
   3.261800E+00   0.000000E+00   6.000000E+02   6.000000E+01   1.000000E+00
   3.318900E+00   0.000000E+00   6.000000E+02   6.000000E+01   1.000000E+00
   3.376000E+00   0.000000E+00   7.500000E+02   7.500000E+01   1.000000E+00
   3.414900E+00   0.000000E+00   1.000000E+01   1.000000E+01   1.000000E+00
   3.451400E+00   0.000000E+00   3.000000E+02   3.000000E+01   1.000000E+00
   3.476800E+00   0.000000E+00   3.000000E+01   1.000000E+01   1.000000E+00
   3.486500E+00   0.000000E+00   5.000000E+03   5.000000E+02   1.000000E+00
   3.526800E+00   0.000000E+00   2.000000E+03   2.000000E+02   1.000000E+00
   3.543800E+00   0.000000E+00   1.000000E+04   1.000000E+03   1.000000E+00
   3.603500E+00   0.000000E+00   1.000000E+02   1.000000E+01   1.000000E+00
   3.643100E+00   0.000000E+00   1.000000E+03   1.000000E+02   1.000000E+00
   3.667600E+00   0.000000E+00   3.800000E+03   3.800000E+02   1.000000E+00
   3.717000E+00   0.000000E+00   1.500000E+04   1.500000E+03   1.000000E+00
   3.747300E+00   0.000000E+00   3.000000E+02   3.000000E+01   1.000000E+00
   3.788500E+00   0.000000E+00   2.000000E+02   2.000000E+01   1.000000E+00
   3.833200E+00   0.000000E+00   4.000000E+02   4.000000E+01   1.000000E+00
   3.866600E+00   0.000000E+00   1.200000E+03   1.200000E+02   1.000000E+00
   3.872100E+00   0.000000E+00   1.000000E+01   1.000000E+01   1.000000E+00
   3.891900E+00   0.000000E+00   4.000000E+02   4.000000E+01   1.000000E+00
   3.921400E+00   0.000000E+00   2.000000E+02   2.000000E+01   1.000000E+00
   3.952000E+00   0.000000E+00   3.000000E+03   3.000000E+02   1.000000E+00
   3.982200E+00   0.000000E+00   1.000000E+03   1.000000E+02   1.000000E+00
   3.991800E+00   0.000000E+00   4.000000E+03   4.000000E+02   1.000000E+00
# reference:
#   author: E.Arai, M.Futakuchi, J.Komaki, M.Ogawa, Y.Oguri
#   title: High-resolution measurements of analogue states in 51Mn
#   journal: Jour: Journal of the Physical Society of Japan, Vol.52, Issue.3, p.802 (
