# header: 
#   title: Dy163(n,res) resonance parameter
#   source: EXFOR
#   user: Arjan Koning
#   date: 2025-10-25
#   format: YANDF-0.4
# exfor: 
#   author: Liou
#   year: 1975
#   subentry: 105250053
#   X4 reaction: 66-DY-163(N,G),,WID
#   X4 source: IAEA-NDS C5 file, database version 2023-08-08
#   X4 link: https://nds.iaea.org/EXFOR/105250053
# target: 
#   Z: 66
#   A: 163
#   nuclide: Dy163
# reaction: 
#   type: (n,res)
#   ENDF_MF: 402
#   ENDF_MT: 151
#   quantity: 
#     type: resonance parameter
#   datablock: 
#     columns: 5
#     entries: 39
##       E             dE             par           dpar       Normalization
##     [eV]           [eV]            []             []             []
   1.623000E-05   3.000000E-08   9.500001E-02   1.500000E-02   1.000000E+00
   5.585000E-05   8.000000E-08   1.300000E-01   2.000000E-02   1.000000E+00
   5.897000E-05   8.000000E-08   1.150000E-01   2.000000E-02   1.000000E+00
   1.058800E-04   1.000000E-07   9.500001E-02   2.000000E-02   1.000000E+00
   1.071800E-04   1.000000E-07   9.000000E-02   2.000000E-02   1.000000E+00
   1.449700E-04   1.500000E-07   1.000000E-01   2.000000E-02   1.000000E+00
   1.550200E-04   1.700000E-07   1.100000E-01   2.000000E-02   1.000000E+00
   2.052600E-04   2.600000E-07   9.500001E-02   2.000000E-02   1.000000E+00
   2.241500E-04   3.000000E-07   1.600000E-01   3.500000E-02   1.000000E+00
   2.611300E-04   1.900000E-07   8.700000E-02   2.000000E-02   1.000000E+00
   2.680100E-04   1.900000E-07   9.000000E-02   2.500000E-02   1.000000E+00
   2.888500E-04   2.200000E-07   1.300000E-01   2.500000E-02   1.000000E+00
   3.230800E-04   2.500000E-07   1.280000E-01   2.500000E-02   1.000000E+00
   3.245500E-04   2.600000E-07   1.000000E-01   2.500000E-02   1.000000E+00
   3.483200E-04   2.900000E-07   1.100000E-01   2.500000E-02   1.000000E+00
   3.686400E-04   3.100000E-07   1.200000E-01   2.500000E-02   1.000000E+00
   3.904400E-04   3.400000E-07   9.000000E-02   2.000000E-02   1.000000E+00
   4.110800E-04   3.700000E-07   1.550000E-01   3.000000E-02   1.000000E+00
   4.293800E-04   3.900000E-07   7.000001E-02   2.000000E-02   1.000000E+00
   4.548400E-04   4.300000E-07   1.500000E-01   3.000000E-02   1.000000E+00
   4.791000E-04   4.600000E-07   1.500000E-01   3.000000E-02   1.000000E+00
   4.835500E-04   4.700000E-07   1.200000E-01   2.500000E-02   1.000000E+00
   5.045900E-04   2.500000E-07   8.000001E-02   2.000000E-02   1.000000E+00
   5.331800E-04   2.700000E-07   1.300000E-01   3.000000E-02   1.000000E+00
   5.422200E-04   2.800000E-07   1.350000E-01   3.000000E-02   1.000000E+00
   5.642900E-04   2.900000E-07   8.500001E-02   2.500000E-02   1.000000E+00
   5.690200E-04   3.000000E-07   1.500000E-01   3.000000E-02   1.000000E+00
   5.807900E-04   3.100000E-07   1.300000E-01   3.000000E-02   1.000000E+00
   6.012500E-04   3.200000E-07   1.300000E-01   3.000000E-02   1.000000E+00
   6.157100E-04   3.400000E-07   7.500000E-02   2.000000E-02   1.000000E+00
   6.207700E-04   3.400000E-07   1.100000E-01   2.500000E-02   1.000000E+00
   6.321000E-04   3.500000E-07   1.250000E-01   3.000000E-02   1.000000E+00
   6.371700E-04   3.500000E-07   1.350000E-01   3.000000E-02   1.000000E+00
   6.419600E-04   3.600000E-07   1.000000E-01   3.000000E-02   1.000000E+00
   6.462600E-04   3.600000E-07   1.500000E-01   4.000000E-02   1.000000E+00
   6.957100E-04   4.000000E-07   1.150000E-01   3.000000E-02   1.000000E+00
   7.124900E-04   4.200000E-07   9.500001E-02   3.000000E-02   1.000000E+00
   7.213200E-04   4.300000E-07   7.500000E-02   2.500000E-02   1.000000E+00
   7.560500E-04   4.600000E-07   8.500001E-02   3.000000E-02   1.000000E+00
# reference:
#   author: H.I.Liou,G.Hacken,J.Rainwater,U.N.Singh
#   title: Neutron resonance spectroscopy: The separated isotopes  of Dy
#   journal: Jour: Physical Review, Part C, Nuclear Physics, Vol.11, p.462 (1975)
