# header: 
#   title: Dy163(n,res) resonance parameter
#   source: EXFOR
#   user: Arjan Koning
#   date: 2025-12-01
#   format: YANDF-0.4
# exfor: 
#   author: Liou
#   year: 1975
#   subentry: 105250052
#   X4 reaction: 66-DY-163(N,EL),,WID/RED,,G
#   X4 source: IAEA-NDS C5 file, database version 2023-08-08
#   X4 link: https://nds.iaea.org/EXFOR/105250052
# target: 
#   Z: 66
#   A: 163
#   nuclide: Dy163
# reaction: 
#   type: (n,res)
#   ENDF_MF: 402
#   ENDF_MT: 151
#   quantity: 
#     type: resonance parameter
#   datablock: 
#     columns: 5
#     entries: 114
##       E             dE             par           dpar       Normalization
##     [eV]           [eV]            []             []             []
   1.720000E-06   1.000000E-08   7.600000E-04   8.000000E-05   1.000000E+00
   5.810000E-06   2.000000E-08   1.100000E-05   2.000000E-06   1.000000E+00
   1.623000E-05   3.000000E-08   2.700000E-03   2.000000E-04   1.000000E+00
   1.965000E-05   3.000000E-08   9.900000E-05   9.000000E-06   1.000000E+00
   3.579000E-05   4.000000E-08   7.400000E-04   5.000000E-05   1.000000E+00
   5.027000E-05   6.000000E-08   2.500000E-04   3.000000E-05   1.000000E+00
   5.585000E-05   8.000000E-08   1.900000E-03   1.000000E-04   1.000000E+00
   5.897000E-05   8.000000E-08   5.500000E-03   4.000000E-04   1.000000E+00
   6.611000E-05   1.000000E-07   5.400000E-04   5.000000E-05   1.000000E+00
   7.200000E-05   1.100000E-07   1.900000E-04   5.000000E-05   1.000000E+00
   7.548001E-05   1.000000E-07   1.400000E-04   1.000000E-05   1.000000E+00
   7.899000E-05   1.300000E-07   8.800000E-04   1.100000E-04   1.000000E+00
   8.630000E-05   1.400000E-07   7.000000E-05   1.600000E-05   1.000000E+00
   9.408000E-05   8.000000E-08   1.100000E-03   1.000000E-04   1.000000E+00
   1.058800E-04   1.000000E-07   3.100000E-03   5.000000E-04   1.000000E+00
   1.071800E-04   1.000000E-07   1.400000E-03   3.000000E-04   1.000000E+00
   1.203300E-04   1.200000E-07   4.500000E-04   5.000000E-05   1.000000E+00
   1.265800E-04   1.300000E-07   7.900000E-04   1.300000E-04   1.000000E+00
   1.274600E-04   1.300000E-07   5.800000E-04   9.000000E-05   1.000000E+00
   1.353100E-04   1.400000E-07   2.400000E-04   3.000000E-05   1.000000E+00
   1.433800E-04   1.500000E-07   6.400000E-04   8.000000E-05   1.000000E+00
   1.449700E-04   1.500000E-07   1.910000E-03   2.500000E-04   1.000000E+00
   1.550200E-04   1.700000E-07   3.500000E-03   3.000000E-04   1.000000E+00
   1.638100E-04   1.900000E-07   4.800000E-04   5.000000E-05   1.000000E+00
   1.771800E-04   2.100000E-07   1.500000E-04   3.000000E-05   1.000000E+00
   1.850900E-04   2.200000E-07   1.900000E-04   4.000000E-05   1.000000E+00
   1.889500E-04   2.300000E-07   1.200000E-04   2.000000E-05   1.000000E+00
   2.029000E-04   2.500000E-07   6.200000E-04   1.100000E-04   1.000000E+00
   2.052600E-04   2.600000E-07   1.900000E-03   2.000000E-04   1.000000E+00
   2.137400E-04   2.700000E-07   2.300000E-04   3.000000E-05   1.000000E+00
   2.241500E-04   3.000000E-07   6.200000E-03   8.000000E-04   1.000000E+00
   2.335400E-04   3.200000E-07   2.400000E-04   3.000000E-05   1.000000E+00
   2.505500E-04   1.800000E-07   5.700000E-04   7.000000E-05   1.000000E+00
   2.611300E-04   1.900000E-07   3.300000E-03   4.000000E-04   1.000000E+00
   2.680100E-04   1.900000E-07   4.200000E-03   5.000000E-04   1.000000E+00
   2.741700E-04   2.000000E-07   9.200000E-04   1.100000E-04   1.000000E+00
   2.810600E-04   2.100000E-07   9.200000E-04   1.200000E-04   1.000000E+00
   2.888500E-04   2.200000E-07   3.700000E-03   5.000000E-04   1.000000E+00
   2.960000E-04   2.900000E-07   1.700000E-04   4.000000E-05   1.000000E+00
   2.977700E-04   2.300000E-07   2.500000E-03   4.000000E-04   1.000000E+00
   3.071000E-04   4.600000E-07   4.600000E-05   2.900000E-05   1.000000E+00
   3.230800E-04   2.500000E-07   7.800000E-03   1.100000E-03   1.000000E+00
   3.245500E-04   2.600000E-07   7.500000E-03   1.100000E-03   1.000000E+00
   3.269300E-04   2.600000E-07   9.700000E-04   1.900000E-04   1.000000E+00
   3.297300E-04   2.600000E-07   4.700000E-04   1.000000E-04   1.000000E+00
   3.428600E-04   2.800000E-07   6.200000E-04   1.100000E-04   1.000000E+00
   3.483200E-04   2.900000E-07   6.400000E-03   1.000000E-03   1.000000E+00
   3.686400E-04   3.100000E-07   4.400000E-03   5.000000E-04   1.000000E+00
   3.749600E-04   3.200000E-07   9.800000E-05   3.600000E-05   1.000000E+00
   3.821600E-04   3.300000E-07   1.300000E-04   4.000000E-05   1.000000E+00
   3.870100E-04   3.300000E-07   6.200000E-04   9.000000E-05   1.000000E+00
   3.904400E-04   3.400000E-07   1.400000E-03   2.000000E-04   1.000000E+00
   4.003400E-04   3.500000E-07   7.000000E-04   1.500000E-04   1.000000E+00
   4.031500E-04   3.500000E-07   8.500000E-05   4.000000E-05   1.000000E+00
   4.110800E-04   3.700000E-07   1.330000E-02   1.500000E-03   1.000000E+00
   4.205600E-04   3.800000E-07   6.800000E-05   2.400000E-05   1.000000E+00
   4.293800E-04   3.900000E-07   1.110000E-03   1.500000E-04   1.000000E+00
   4.548400E-04   4.300000E-07   2.200000E-03   3.000000E-04   1.000000E+00
   4.592100E-04   4.300000E-07   7.000000E-04   1.400000E-04   1.000000E+00
   4.653200E-04   4.400000E-07   5.100000E-04   9.000000E-05   1.000000E+00
   4.791000E-04   4.600000E-07   1.600000E-03   2.000000E-04   1.000000E+00
   4.835500E-04   4.700000E-07   1.800000E-03   2.000000E-04   1.000000E+00
   5.045900E-04   2.500000E-07   2.600000E-03   3.000000E-04   1.000000E+00
   5.163400E-04   2.600000E-07   6.600000E-04   1.300000E-04   1.000000E+00
   5.198300E-04   2.600000E-07   4.800000E-04   9.000000E-05   1.000000E+00
   5.331800E-04   2.700000E-07   4.300000E-03   7.000000E-04   1.000000E+00
   5.422200E-04   2.800000E-07   5.200000E-03   9.000000E-04   1.000000E+00
   5.642900E-04   2.900000E-07   1.300000E-03   2.000000E-04   1.000000E+00
   5.690200E-04   3.000000E-07   2.600000E-03   3.000000E-04   1.000000E+00
   5.807900E-04   3.100000E-07   1.830000E-03   2.500000E-04   1.000000E+00
   5.945200E-04   3.200000E-07   2.000000E-03   3.000000E-04   1.000000E+00
   6.012500E-04   3.200000E-07   3.000000E-03   4.000000E-04   1.000000E+00
   6.157100E-04   3.400000E-07   1.400000E-03   2.000000E-04   1.000000E+00
   6.207700E-04   3.400000E-07   2.000000E-03   3.000000E-04   1.000000E+00
   6.321000E-04   3.500000E-07   4.200000E-03   7.000000E-04   1.000000E+00
   6.371700E-04   3.500000E-07   3.100000E-03   6.000000E-04   1.000000E+00
   6.419600E-04   3.600000E-07   3.200000E-03   6.000000E-04   1.000000E+00
   6.462600E-04   3.600000E-07   2.400000E-03   4.000000E-04   1.000000E+00
   6.522000E-04   4.700000E-07   1.100000E-04   5.000000E-05   1.000000E+00
   6.604000E-04   4.800000E-07   3.700000E-04   1.000000E-04   1.000000E+00
   6.869500E-04   3.900000E-07   4.600000E-04   1.100000E-04   1.000000E+00
   6.957100E-04   4.000000E-07   3.000000E-03   5.000000E-04   1.000000E+00
   7.097800E-04   5.300000E-07   1.500000E-04   8.000000E-05   1.000000E+00
   7.124900E-04   4.200000E-07   1.400000E-03   2.000000E-04   1.000000E+00
   7.213200E-04   4.300000E-07   1.600000E-03   2.000000E-04   1.000000E+00
   7.320500E-04   4.400000E-07   3.500000E-04   9.000000E-05   1.000000E+00
   7.361400E-04   5.600000E-07   3.600000E-04   9.000000E-05   1.000000E+00
   7.416900E-04   4.400000E-07   4.000000E-04   1.100000E-04   1.000000E+00
   7.471500E-04   5.700000E-07   1.200000E-04   5.000000E-05   1.000000E+00
   7.560500E-04   4.600000E-07   9.500000E-04   2.200000E-04   1.000000E+00
   7.643000E-04   6.000000E-07   3.200000E-04   1.400000E-04   1.000000E+00
   7.699300E-04   6.000000E-07   1.200000E-04   6.000000E-05   1.000000E+00
   7.765500E-04   6.100000E-07   5.000000E-04   1.100000E-04   1.000000E+00
   7.944000E-04   6.300000E-07   9.600000E-04   2.100000E-04   1.000000E+00
   8.095100E-04   5.100000E-07   4.600000E-03   1.100000E-03   1.000000E+00
   8.122900E-04   5.100000E-07   8.800000E-04   2.800000E-04   1.000000E+00
   8.230400E-04   5.200000E-07   8.400000E-04   2.800000E-04   1.000000E+00
   8.308600E-04   5.300000E-07   1.500000E-03   3.000000E-04   1.000000E+00
   8.466200E-04   6.900000E-07   2.200000E-04   1.200000E-04   1.000000E+00
   8.511600E-04   5.400000E-07   2.700000E-03   6.000000E-04   1.000000E+00
   8.577500E-04   7.000000E-07   1.000000E-03   3.000000E-04   1.000000E+00
   8.649200E-04   5.600000E-07   8.800000E-04   2.700000E-04   1.000000E+00
   8.739100E-04   5.700000E-07   2.000000E-03   5.000000E-04   1.000000E+00
   8.996500E-04   3.000000E-07   3.000000E-03   7.000000E-04   1.000000E+00
   9.187100E-04   3.100000E-07   1.500000E-03   3.000000E-04   1.000000E+00
   9.297900E-04   3.100000E-07   3.400000E-03   8.000000E-04   1.000000E+00
   9.357500E-04   8.000000E-07   6.200000E-04   3.300000E-04   1.000000E+00
   9.394900E-04   3.200000E-07   4.200000E-03   1.300000E-03   1.000000E+00
   9.496700E-04   3.200000E-07   2.200000E-03   6.000000E-04   1.000000E+00
   9.577500E-04   8.300000E-07   5.800000E-04   1.900000E-04   1.000000E+00
   9.673500E-04   8.400000E-07   7.700000E-04   2.600000E-04   1.000000E+00
   9.728400E-04   3.400000E-07   3.700000E-03   1.000000E-03   1.000000E+00
   9.805200E-04   8.600000E-07   2.100000E-04   1.300000E-04   1.000000E+00
   9.966000E-04   8.800000E-07   8.600000E-04   2.900000E-04   1.000000E+00
# reference:
#   author: H.I.Liou,G.Hacken,J.Rainwater,U.N.Singh
#   title: Neutron resonance spectroscopy: The separated isotopes  of Dy
#   journal: Jour: Physical Review, Part C, Nuclear Physics, Vol.11, p.462 (1975)
