# header: 
#   title: Au197(n,res) resonance parameter
#   source: EXFOR
#   user: Arjan Koning
#   date: 2025-12-18
#   format: YANDF-0.4
# exfor: 
#   author: Alix
#   year: 1975
#   subentry: 205800032
#   X4 reaction: 79-AU-197(N,G),,WID
#   X4 source: IAEA-NDS C5 file, database version 2023-08-08
#   X4 link: https://nds.iaea.org/EXFOR/205800032
# target: 
#   Z: 79
#   A: 197
#   nuclide: Au197
# reaction: 
#   type: (n,res)
#   ENDF_MF: 402
#   ENDF_MT: 151
#   quantity: 
#     type: resonance parameter
#   datablock: 
#     columns: 5
#     entries: 50
##       E             dE             par           dpar       Normalization
##     [eV]           [eV]            []             []             []
   5.799000E-05   1.159800E-07   1.010000E-01   2.020000E-02   1.000000E+00
   6.021000E-05   1.204200E-07   9.500001E-02   1.900000E-02   1.000000E+00
   7.839000E-05   1.567800E-07   1.360000E-01   2.720000E-02   1.000000E+00
   1.069000E-04   2.138000E-07   1.000000E-01   2.000000E-02   1.000000E+00
   1.221000E-04   2.442000E-07   8.300000E-02   1.660000E-02   1.000000E+00
   1.444000E-04   2.888000E-07   1.210000E-01   2.420000E-02   1.000000E+00
   1.514000E-04   3.028000E-07   7.800000E-02   1.560000E-02   1.000000E+00
   1.630000E-04   3.260000E-07   1.330000E-01   2.660000E-02   1.000000E+00
   1.650000E-04   3.300000E-07   1.150000E-01   2.300000E-02   1.000000E+00
   1.900000E-04   3.800000E-07   1.010000E-01   2.020000E-02   1.000000E+00
   2.406000E-04   4.812000E-07   1.030000E-01   2.060000E-02   1.000000E+00
   2.622000E-04   5.244000E-07   8.800001E-02   1.760000E-02   1.000000E+00
   2.738000E-04   5.476000E-07   1.150000E-01   2.300000E-02   1.000000E+00
   2.934000E-04   5.868000E-07   1.260000E-01   2.520000E-02   1.000000E+00
   3.293000E-04   6.586000E-07   1.400000E-01   2.800000E-02   1.000000E+00
   3.308000E-04   6.615999E-07   1.210000E-01   2.420000E-02   1.000000E+00
   3.553000E-04   7.106000E-07   1.680000E-01   3.360000E-02   1.000000E+00
   3.707000E-04   7.414001E-07   9.600001E-02   1.920000E-02   1.000000E+00
   3.751000E-04   7.501999E-07   1.200000E-01   2.400000E-02   1.000000E+00
   3.815000E-04   7.630000E-07   8.800001E-02   1.760000E-02   1.000000E+00
   4.398000E-04   8.796000E-07   1.240000E-01   2.480000E-02   1.000000E+00
   4.505000E-04   9.010000E-07   1.060000E-01   2.120000E-02   1.000000E+00
   4.769000E-04   9.538001E-07   1.370000E-01   2.740000E-02   1.000000E+00
   4.892000E-04   9.784001E-07   1.450000E-01   2.900000E-02   1.000000E+00
   4.933000E-04   9.866000E-07   8.600000E-02   1.720000E-02   1.000000E+00
   5.334000E-04   1.066800E-06   1.160000E-01   2.320000E-02   1.000000E+00
   5.479000E-04   1.095800E-06   1.200000E-01   2.400000E-02   1.000000E+00
   5.861000E-04   1.172200E-06   2.290000E-01   4.580000E-02   1.000000E+00
   6.022000E-04   1.204400E-06   1.050000E-01   2.100000E-02   1.000000E+00
   6.165000E-04   1.233000E-06   9.400000E-02   1.880000E-02   1.000000E+00
   6.238000E-04   1.247600E-06   9.200001E-02   1.840000E-02   1.000000E+00
   6.275000E-04   1.255000E-06   7.000001E-02   1.400000E-02   1.000000E+00
   6.380000E-04   1.276000E-06   1.220000E-01   2.440000E-02   1.000000E+00
   6.580999E-04   1.316200E-06   9.700000E-02   1.940000E-02   1.000000E+00
   6.949000E-04   1.389800E-06   1.200000E-01   2.400000E-02   1.000000E+00
   6.982000E-04   1.396400E-06   1.150000E-01   2.300000E-02   1.000000E+00
   7.148000E-04   1.429600E-06   1.040000E-01   2.080000E-02   1.000000E+00
   7.376000E-04   1.475200E-06   1.200000E-01   2.400000E-02   1.000000E+00
   7.592000E-04   1.518400E-06   1.160000E-01   2.320000E-02   1.000000E+00
   7.729000E-04   1.545800E-06   1.170000E-01   2.340000E-02   1.000000E+00
   7.834000E-04   1.566800E-06   1.300000E-01   2.600000E-02   1.000000E+00
   7.951000E-04   1.590200E-06   1.340000E-01   2.680000E-02   1.000000E+00
   8.185000E-04   1.637000E-06   1.290000E-01   2.580000E-02   1.000000E+00
   8.240000E-04   1.648000E-06   1.260000E-01   2.520000E-02   1.000000E+00
   8.782000E-04   1.756400E-06   1.160000E-01   2.320000E-02   1.000000E+00
   9.312000E-04   1.862400E-06   1.130000E-01   2.260000E-02   1.000000E+00
   9.600000E-04   1.920000E-06   1.510000E-01   3.020000E-02   1.000000E+00
   9.830000E-04   1.966000E-06   1.110000E-01   2.220000E-02   1.000000E+00
   9.870999E-04   1.974200E-06   1.520000E-01   3.040000E-02   1.000000E+00
   9.942000E-04   1.988400E-06   1.280000E-01   2.560000E-02   1.000000E+00
# reference:
#   author: M.Alix
#   title: -Device for the measurement of the neutron radiative  capture cross section-.(thesis in French).
#   journal: Rept: Centre d'Etudes Nucleaires, note, No.1806 (1975)
