# header: 
#   title: Be9(g,xn) cross section
#   source: EXFOR
#   user: Arjan Koning
#   date: 2025-10-25
#   format: YANDF-0.4
# exfor: 
#   author: Utsunomiya
#   year: 2000
#   subentry: K2003003
#   X4 reaction: 4-BE-9(G,X)0-NN-1,,SIG
#   X4 source: IAEA-NDS C5 file, database version 2023-08-08
#   X4 link: https://nds.iaea.org/EXFOR/K2003003
# target: 
#   Z: 4
#   A: 9
#   nuclide: Be9
# reaction: 
#   type: (g,xn)
#   ENDF_MF: 3
#   ENDF_MT: 201
#   quantity: 
#     type: cross section
#   datablock: 
#     columns: 5
#     entries: 59
##       E             dE             xs             dxs       Normalization
##     [MeV]          [MeV]          [mb]           [mb]            []
   2.110000E+00   1.400000E-01   2.000000E-01   2.690700E-02   1.000000E+00
   2.200000E+00   1.400000E-01   2.000000E-01   2.059100E-02   1.000000E+00
   2.250000E+00   1.800000E-01   2.300000E-01   2.878300E-02   1.000000E+00
   2.280000E+00   1.600000E-01   1.900000E-01   1.980900E-02   1.000000E+00
   2.300000E+00   1.400000E-01   1.700000E-01   2.518100E-02   1.000000E+00
   2.330000E+00   1.600000E-01   1.500000E-01   1.680000E-02   1.000000E+00
   2.380000E+00   1.600000E-01   1.600000E-01   1.753200E-02   1.000000E+00
   2.390000E+00   1.800000E-01   1.900000E-01   2.631400E-02   1.000000E+00
   2.420000E+00   1.400000E-01   6.600000E-01   7.161300E-02   1.000000E+00
   2.430000E+00   1.000000E-01   9.200000E-01   1.022500E-01   1.000000E+00
   2.440000E+00   2.000000E-01   4.200000E-01   5.503500E-02   1.000000E+00
   2.460000E+00   1.600000E-01   4.800000E-01   5.259500E-02   1.000000E+00
   2.480000E+00   2.200000E-01   4.400000E-01   4.968100E-02   1.000000E+00
   2.480000E+00   1.400000E-01   5.200000E-01   6.848500E-02   1.000000E+00
   2.510000E+00   1.600000E-01   4.300000E-01   6.322701E-02   1.000000E+00
   2.510000E+00   2.400000E-01   3.700000E-01   4.482100E-02   1.000000E+00
   2.550000E+00   1.800000E-01   3.700000E-01   4.482100E-02   1.000000E+00
   2.590000E+00   2.200000E-01   3.500000E-01   4.350000E-02   1.000000E+00
   2.590000E+00   1.600000E-01   3.700000E-01   5.204700E-02   1.000000E+00
   2.640000E+00   1.200000E-01   3.300000E-01   4.982100E-02   1.000000E+00
   2.690000E+00   1.400000E-01   3.900000E-01   5.321700E-02   1.000000E+00
   2.730000E+00   1.600000E-01   3.800000E-01   4.549300E-02   1.000000E+00
   2.740000E+00   1.600000E-01   4.000000E-01   5.381400E-02   1.000000E+00
   2.790000E+00   1.600000E-01   4.400000E-01   7.189000E-02   1.000000E+00
   2.840000E+00   1.800000E-01   5.200000E-01   7.609400E-02   1.000000E+00
   2.880000E+00   1.400000E-01   6.100000E-01   8.132700E-02   1.000000E+00
   2.940000E+00   1.800000E-01   7.800000E-01   1.064300E-01   1.000000E+00
   2.980000E+00   1.400000E-01   8.300000E-01   1.094500E-01   1.000000E+00
   3.050000E+00   1.800000E-01   8.200000E-01   1.017200E-01   1.000000E+00
   3.080000E+00   1.800000E-01   9.100000E-01   1.371400E-01   1.000000E+00
   3.140000E+00   1.600000E-01   9.200000E-01   1.222900E-01   1.000000E+00
   3.190000E+00   2.800000E-01   7.600001E-01   1.130400E-01   1.000000E+00
   3.280000E+00   2.400000E-01   6.700000E-01   6.353001E-02   1.000000E+00
   3.300000E+00   2.400000E-01   6.500000E-01   1.073400E-01   1.000000E+00
   3.390000E+00   2.200000E-01   6.400000E-01   1.068500E-01   1.000000E+00
   3.480000E+00   2.000000E-01   4.600000E-01   8.132600E-02   1.000000E+00
   3.580000E+00   1.400000E-01   4.300000E-01   7.998600E-02   1.000000E+00
   3.580000E+00   1.400000E-01   4.400000E-01   1.263700E-01   1.000000E+00
   3.750000E+00   1.800000E-01   4.100000E-01   7.043900E-02   1.000000E+00
   3.870000E+00   2.000000E-01   4.000000E-01   4.118300E-02   1.000000E+00
   4.010000E+00   2.800000E-01   4.300000E-01   4.356200E-02   1.000000E+00
   4.070000E+00   2.800000E-01   4.600000E-01   4.597800E-02   1.000000E+00
   4.190000E+00   2.200000E-01   4.900000E-01   5.333700E-02   1.000000E+00
   4.330000E+00   2.800000E-01   5.400000E-01   5.255400E-02   1.000000E+00
   4.370000E+00   2.600000E-01   5.200000E-01   5.559000E-02   1.000000E+00
   4.490000E+00   2.800000E-01   5.900000E-01   6.098900E-02   1.000000E+00
   4.560000E+00   3.000000E-01   6.000000E-01   6.177400E-02   1.000000E+00
   4.560000E+00   2.600000E-01   6.400000E-01   6.494400E-02   1.000000E+00
   4.700000E+00   2.600000E-01   6.600000E-01   6.654600E-02   1.000000E+00
   4.910000E+00   3.000000E-01   7.700000E-01   7.001800E-02   1.000000E+00
   5.090000E+00   3.000000E-01   8.900000E-01   8.553400E-02   1.000000E+00
   5.200000E+00   4.000000E-01   7.800000E-01   7.634200E-02   1.000000E+00
   5.290000E+00   3.800000E-01   7.700000E-01   8.001599E-02   1.000000E+00
   5.420000E+00   3.400000E-01   8.500000E-01   8.632600E-02   1.000000E+00
   5.570000E+00   2.600000E-01   9.800000E-01   9.684600E-02   1.000000E+00
   5.710000E+00   3.000000E-01   1.020000E+00   1.045300E-01   1.000000E+00
   5.830000E+00   2.800000E-01   9.700000E-01   1.006000E-01   1.000000E+00
   5.950000E+00   2.600000E-01   1.040000E+00   1.061200E-01   1.000000E+00
   6.110000E+00   3.000000E-01   1.030000E+00   1.009600E-01   1.000000E+00
# reference:
#   author: H.Utsunomiya, Y.Yonezawa, H.Akimune, T.Yamagata,  M.Ohta, M.Fujishiro, H.Toyokawa, H.Ohgaki
#   title: Photodisintegration of 9Be with laser-induced Compton backscattered gamma rays
#   journal: Jour: Physical Review, Part C, Nuclear Physics, Vol.63, p.018801 (2000)
