# header: 
#   title: Yb171(n,res) resonance parameter
#   source: EXFOR
#   user: Arjan Koning
#   date: 2025-10-25
#   format: YANDF-0.4
# exfor: 
#   author: WangNaiyanggg
#   year: 1966
#   subentry: 40030003
#   X4 reaction: 70-YB-171(N,EL),,WID,,G
#   X4 source: IAEA-NDS C5 file, database version 2023-08-08
#   X4 link: https://nds.iaea.org/EXFOR/40030003
# target: 
#   Z: 70
#   A: 171
#   nuclide: Yb171
# reaction: 
#   type: (n,res)
#   ENDF_MF: 402
#   ENDF_MT: 151
#   quantity: 
#     type: resonance parameter
#   datablock: 
#     columns: 5
#     entries: 22
##       E             dE             par           dpar       Normalization
##     [eV]           [eV]            []             []             []
   7.930000E-06   2.000000E-08   1.440000E-03   1.700000E-04   1.000000E+00
   8.130000E-06   2.000000E-07   4.900000E-04   6.000000E-05   1.000000E+00
   8.850000E-06   4.000000E-08   2.500000E-05   1.000000E-05   1.000000E+00
   1.313000E-05   7.000000E-08   2.500000E-03   1.000000E-04   1.000000E+00
   2.180000E-05   1.000000E-07   1.900000E-04   3.000000E-05   1.000000E+00
   2.820000E-05   1.000000E-07   1.800000E-03   1.000000E-04   1.000000E+00
   3.470000E-05   2.000000E-07   3.800000E-03   8.000000E-04   1.000000E+00
   4.150000E-05   2.000000E-07   7.200000E-03   7.000000E-04   1.000000E+00
   4.650000E-05   3.000000E-07   9.000000E-04   1.500000E-04   1.000000E+00
   5.320000E-05   3.000000E-07   5.000000E-03   1.000000E-03   1.000000E+00
   5.440000E-05   3.000000E-07   1.600000E-02   3.000000E-03   1.000000E+00
   6.040000E-05   4.000000E-07   4.300000E-03   3.000000E-04   1.000000E+00
   6.500000E-05   4.000000E-07   7.000000E-03   1.000000E-03   1.000000E+00
   7.730000E-05   6.000000E-07   1.100000E-02   2.000000E-03   1.000000E+00
   8.260000E-05   6.000000E-07   2.400000E-03   3.000000E-04   1.000000E+00
   8.470000E-05   7.000000E-07   2.500000E-03   4.000000E-04   1.000000E+00
   9.610000E-05   8.000000E-07   3.000000E-03   4.000000E-04   1.000000E+00
   1.080000E-04   1.000000E-06   3.700000E-02   7.000000E-03   1.000000E+00
   1.130000E-04   1.000000E-06   1.400000E-02   3.000000E-03   1.000000E+00
   1.280000E-04   1.200000E-06   2.000000E-02   5.000000E-03   1.000000E+00
   1.410000E-04   1.400000E-06   1.000000E-02   2.000000E-03   1.000000E+00
   1.470000E-04   1.500000E-06   7.000000E-03   2.000000E-03   1.000000E+00
# reference:
#   author: Wang Nai-yang, E.N.Karzhavina, A.B.Popov, Yu.S.Yazvitskii, Yao Chi-chuang
#   title: Neutron resonances of Yb isotopes
#   journal: Jour: Yadernaya Fizika, Vol.3, p.48 (1966)
