# header:
#   title: Yb171(n,res) resonance parameter
#   source: EXFOR
#   user: Arjan Koning
#   date: 2024-01-18
#   format: YANDF-0.1
# exfor:
#   author: Liou
#   year: 1973
#   subentry: 100810081
#   X4 reaction: 70-YB-171(N,G),,WID
#   X4 source: IAEA-NDS C5 file, database version 2023-08-08
#   X4 link: https://nds.iaea.org/EXFOR/100810081
# target:
#   Z: 70
#   A: 171
#   nuclide: Yb171
# reaction:
#   type: (n,res)
#   ENDF_MF: 402
#   ENDF_MT: 151
# datablock:
#   quantity: resonance parameter
#   columns: 5
#   entries: 37
##       E             dE             par           dpar       Normalization
##     [eV]           [eV]            []             []             []
   7.910000E-06   2.000000E-08   8.000001E-02   1.000000E-02   1.000000E+00
   1.304000E-05   3.000000E-08   7.800000E-02   1.000000E-02   1.000000E+00
   2.813000E-05   4.000000E-08   8.600000E-02   1.200000E-02   1.000000E+00
   3.454000E-05   5.000000E-08   7.700001E-02   8.000000E-03   1.000000E+00
   4.136000E-05   6.000000E-08   6.600001E-02   8.000000E-03   1.000000E+00
   5.287000E-05   9.000000E-08   7.300001E-02   1.800000E-02   1.000000E+00
   5.407000E-05   1.000000E-07   7.600001E-02   1.200000E-02   1.000000E+00
   6.009000E-05   5.000000E-08   7.200000E-02   1.000000E-02   1.000000E+00
   6.470000E-05   6.000000E-08   7.900000E-02   1.000000E-02   1.000000E+00
   7.694000E-05   8.000000E-08   6.900001E-02   1.200000E-02   1.000000E+00
   9.605000E-05   1.100000E-07   5.900000E-02   1.800000E-02   1.000000E+00
   1.076100E-04   1.200000E-07   8.000001E-02   1.200000E-02   1.000000E+00
   1.121000E-04   1.300000E-07   8.900001E-02   1.200000E-02   1.000000E+00
   1.275700E-04   1.600000E-07   7.000001E-02   1.400000E-02   1.000000E+00
   1.604100E-04   2.300000E-07   8.000001E-02   1.400000E-02   1.000000E+00
   1.646100E-04   2.300000E-07   7.000001E-02   1.000000E-02   1.000000E+00
   1.756100E-04   1.300000E-07   6.900001E-02   1.500000E-02   1.000000E+00
   2.268100E-04   1.900000E-07   7.400000E-02   1.000000E-02   1.000000E+00
   2.500600E-04   2.200000E-07   8.400001E-02   1.200000E-02   1.000000E+00
   2.552600E-04   2.300000E-07   1.000000E-01   2.000000E-02   1.000000E+00
   2.874900E-04   2.700000E-07   8.000001E-02   1.800000E-02   1.000000E+00
   2.905800E-04   2.700000E-07   8.600000E-02   2.000000E-02   1.000000E+00
   3.101000E-04   3.000000E-07   8.000001E-02   1.500000E-02   1.000000E+00
   3.544100E-04   3.700000E-07   8.200000E-02   1.400000E-02   1.000000E+00
   3.872100E-04   4.200000E-07   7.000001E-02   2.500000E-02   1.000000E+00
   4.447800E-04   2.600000E-07   8.000001E-02   1.400000E-02   1.000000E+00
   4.707800E-04   2.800000E-07   7.200000E-02   1.500000E-02   1.000000E+00
   4.836200E-04   2.900000E-07   6.200000E-02   1.800000E-02   1.000000E+00
   4.991200E-04   3.100000E-07   7.800000E-02   1.500000E-02   1.000000E+00
   5.158600E-04   3.200000E-07   8.000001E-02   2.000000E-02   1.000000E+00
   5.248000E-04   3.300000E-07   7.700001E-02   1.800000E-02   1.000000E+00
   5.389000E-04   3.400000E-07   7.000001E-02   1.500000E-02   1.000000E+00
   5.777400E-04   3.800000E-07   7.200000E-02   1.500000E-02   1.000000E+00
   5.982300E-04   4.000000E-07   8.700000E-02   1.800000E-02   1.000000E+00
   6.038800E-04   4.100000E-07   7.300001E-02   1.600000E-02   1.000000E+00
   6.125000E-04   4.200000E-07   6.400000E-02   1.600000E-02   1.000000E+00
   6.285800E-04   4.300000E-07   8.600000E-02   2.000000E-02   1.000000E+00
# reference:
#   author: H.I.LIOU,H.S.CAMARDA,G.HACKEN,F.RAHN,J.RAINWATER, M.SLAGOWITZ,S.WYNCHANK
#   title: Neutron resonance spectroscopy. XI. The separated  isotopes of Yb.
#   journal: Jour: Physical Review, Part C, Nuclear Physics, Vol.7, p.823 (1973)
