# header: 
#   title: Gd160(n,res) resonance parameter
#   source: EXFOR
#   user: Arjan Koning
#   date: 2025-12-18
#   format: YANDF-0.4
# exfor: 
#   author: Rahn
#   year: 1974
#   subentry: 104580071
#   X4 reaction: 64-GD-160(N,0),,EN
#   X4 source: IAEA-NDS C5 file, database version 2023-08-08
#   X4 link: https://nds.iaea.org/EXFOR/104580071
# target: 
#   Z: 64
#   A: 160
#   nuclide: Gd160
# reaction: 
#   type: (n,res)
#   ENDF_MF: 402
#   ENDF_MT: 151
#   quantity: 
#     type: resonance parameter
#   datablock: 
#     columns: 5
#     entries: 43
##       E             dE             par           dpar       Normalization
##     [eV]           [eV]            []             []             []
   2.219600E-04   1.400000E-07   2.219600E+02   1.400000E-01   1.000000E+00
   4.479000E-04   5.000000E-07   4.479000E+02   5.000000E-01   1.000000E+00
   4.788000E-04   4.000000E-07   4.788000E+02   4.000000E-01   1.000000E+00
   7.525000E-04   4.000000E-07   7.525000E+02   4.000000E-01   1.000000E+00
   9.049000E-04   3.000000E-07   9.049000E+02   3.000000E-01   1.000000E+00
   1.240900E-03   5.000000E-07   1.240900E+03   5.000000E-01   1.000000E+00
   1.417900E-03   3.000000E-07   1.417900E+03   3.000000E-01   1.000000E+00
   1.808300E-03   4.000000E-07   1.808300E+03   4.000000E-01   1.000000E+00
   1.828900E-03   1.200000E-06   1.828900E+03   1.200000E+00   1.000000E+00
   1.959800E-03   5.000000E-07   1.959800E+03   5.000000E-01   1.000000E+00
   2.268900E-03   6.000000E-07   2.268900E+03   6.000000E-01   1.000000E+00
   2.396300E-03   6.000000E-07   2.396300E+03   6.000000E-01   1.000000E+00
   2.516900E-03   7.000000E-07   2.516900E+03   7.000000E-01   1.000000E+00
   2.640200E-03   7.000000E-07   2.640200E+03   7.000000E-01   1.000000E+00
   2.813200E-03   8.000000E-07   2.813200E+03   8.000000E-01   1.000000E+00
   3.343000E-03   3.000000E-06   3.343000E+03   3.000000E+00   1.000000E+00
   3.454700E-03   1.100000E-06   3.454700E+03   1.100000E+00   1.000000E+00
   3.717900E-03   1.200000E-06   3.717900E+03   1.200000E+00   1.000000E+00
   3.870200E-03   1.300000E-06   3.870200E+03   1.300000E+00   1.000000E+00
   3.931600E-03   1.300000E-06   3.931600E+03   1.300000E+00   1.000000E+00
   4.517800E-03   1.700000E-06   4.517800E+03   1.700000E+00   1.000000E+00
   4.639000E-03   4.000000E-06   4.639000E+03   4.000000E+00   1.000000E+00
   4.667000E-03   4.000000E-06   4.667000E+03   4.000000E+00   1.000000E+00
   4.794000E-03   4.000000E-06   4.794000E+03   4.000000E+00   1.000000E+00
   5.018200E-03   2.000000E-06   5.018200E+03   2.000000E+00   1.000000E+00
   5.251900E-03   2.000000E-06   5.251900E+03   2.000000E+00   1.000000E+00
   5.836500E-03   2.400000E-06   5.836500E+03   2.400000E+00   1.000000E+00
   5.927900E-03   2.500000E-06   5.927900E+03   2.500000E+00   1.000000E+00
   6.390800E-03   2.800000E-06   6.390800E+03   2.800000E+00   1.000000E+00
   6.504200E-03   2.900000E-06   6.504200E+03   2.900000E+00   1.000000E+00
   6.792100E-03   3.100000E-06   6.792100E+03   3.100000E+00   1.000000E+00
   6.832100E-03   3.100000E-06   6.832100E+03   3.100000E+00   1.000000E+00
   6.900600E-03   3.200000E-06   6.900600E+03   3.200000E+00   1.000000E+00
   7.303600E-03   3.400000E-06   7.303600E+03   3.400000E+00   1.000000E+00
   7.379400E-03   3.500000E-06   7.379400E+03   3.500000E+00   1.000000E+00
   7.691000E-03   3.700000E-06   7.691000E+03   3.700000E+00   1.000000E+00
   7.841000E-03   3.800000E-06   7.841000E+03   3.800000E+00   1.000000E+00
   8.305000E-03   4.000000E-06   8.305000E+03   4.000000E+00   1.000000E+00
   8.465000E-03   4.000000E-06   8.465000E+03   4.000000E+00   1.000000E+00
   8.694000E-03   4.000000E-06   8.694000E+03   4.000000E+00   1.000000E+00
   9.096000E-03   5.000000E-06   9.096000E+03   5.000000E+00   1.000000E+00
   9.518000E-03   5.000000E-06   9.518000E+03   5.000000E+00   1.000000E+00
   9.662000E-03   5.000000E-06   9.662000E+03   5.000000E+00   1.000000E+00
# reference:
#   author: F.Rahn,H.S.Camarda,G.Hacken,W.W.Havens Jr,H.I.Liou,  J.Rainwater
#   title: Neutron resonance spectroscopy: 154,158,160Gd.
#   journal: Jour: Physical Review, Part C, Nuclear Physics, Vol.10, p.1904 (1974)
