# header: 
#   title: Ni0(n,xa) emission spectrum at  7.100000E+00 MeV
#   source: EXFOR
#   user: Arjan Koning
#   date: 2025-12-18
#   format: YANDF-0.4
# exfor: 
#   author: Sanami
#   year: 1998
#   subentry: 22354006
#   X4 reaction: 28-NI-0(N,X)2-HE-4,,DE
#   X4 source: IAEA-NDS C5 file, database version 2023-08-08
#   X4 link: https://nds.iaea.org/EXFOR/22354006
# target: 
#   Z: 28
#   A: 0
#   nuclide: Ni0
# reaction: 
#   type: (n,xa)
#   ENDF_MF: 5
#   ENDF_MT: 207
#   E-incident [MeV]:  7.100000E+00
#   quantity: 
#     type: emission spectrum
#   datablock: 
#     columns: 5
#     entries: 30
##     E-out         dE-out           xs             dxs       Normalization
##     [MeV]          [MeV]       [mb/MeV.sr]    [mb/MeV.sr]        []
   5.100000E+00   1.000000E-01   3.263000E-06   3.263000E-07   1.000000E+00
   5.300000E+00   1.000000E-01   3.019000E-06   9.800000E-07   1.000000E+00
   5.500000E+00   1.000000E-01   1.835000E-06   8.653000E-07   1.000000E+00
   5.700000E+00   1.000000E-01   2.559000E-06   1.070000E-06   1.000000E+00
   5.900000E+00   1.000000E-01   2.447000E-06   5.239000E-07   1.000000E+00
   6.100000E+00   1.000000E-01   3.710000E-06   6.077000E-07   1.000000E+00
   6.300000E+00   1.000000E-01   6.802000E-06   8.559000E-07   1.000000E+00
   6.500000E+00   1.000000E-01   8.595001E-06   9.588999E-07   1.000000E+00
   6.700000E+00   1.000000E-01   1.099000E-05   1.277000E-06   1.000000E+00
   6.900000E+00   1.000000E-01   1.365000E-05   1.495000E-06   1.000000E+00
   7.100000E+00   1.000000E-01   1.605000E-05   1.695000E-06   1.000000E+00
   7.300000E+00   1.000000E-01   1.659000E-05   1.701000E-06   1.000000E+00
   7.500000E+00   1.000000E-01   1.920000E-05   2.046000E-06   1.000000E+00
   7.700000E+00   1.000000E-01   2.191000E-05   2.296000E-06   1.000000E+00
   7.900000E+00   1.000000E-01   2.425000E-05   2.506000E-06   1.000000E+00
   8.100000E+00   1.000000E-01   2.438000E-05   2.464000E-06   1.000000E+00
   8.300000E+00   1.000000E-01   2.277000E-05   2.285000E-06   1.000000E+00
   8.500000E+00   1.000000E-01   2.130000E-05   2.204000E-06   1.000000E+00
   8.700000E+00   1.000000E-01   1.953000E-05   1.986000E-06   1.000000E+00
   8.900000E+00   1.000000E-01   1.947000E-05   1.984000E-06   1.000000E+00
   9.100000E+00   1.000000E-01   1.870000E-05   1.977000E-06   1.000000E+00
   9.300000E+00   1.000000E-01   1.422000E-05   1.585000E-06   1.000000E+00
   9.500000E+00   1.000000E-01   1.189000E-05   1.307000E-06   1.000000E+00
   9.700000E+00   1.000000E-01   9.173000E-06   1.167000E-06   1.000000E+00
   9.900000E+00   1.000000E-01   6.605000E-06   8.257000E-07   1.000000E+00
   1.010000E+01   1.000000E-01   7.687000E-08   9.492000E-08   1.000000E+00
   1.030000E+01   1.000000E-01   3.267000E-10   9.082000E-10   1.000000E+00
   1.050000E+01   1.000000E-01   3.352000E-08   2.343000E-08   1.000000E+00
   1.070000E+01   1.000000E-01   6.349000E-08   3.788000E-08   1.000000E+00
   1.090000E+01   1.000000E-01   0.000000E+00   0.000000E+00   1.000000E+00
# reference:
#   author: T.Sanami,M.Baba,T.Kawano,S.Matsuyama,T.Kiyosumi, Y.Nauchi,K.Saito,N.Hirakawa,N.Ito
#   title: High resolution measurements of double-differential  (n,alpha) cross-sections of Ni-58 and Ni-nat  between 4.2 and 6.5 MeV neutrons
#   journal: Jour: Jour. of Nuclear Science and Technology, Vol.35, p.851 (1998)
