# header: 
#   title: Ni0(n,xa) emission spectrum at  9.050000E+00 MeV
#   source: EXFOR
#   user: Arjan Koning
#   date: 2025-08-01
#   format: YANDF-0.2
# exfor: 
#   author: Sanami
#   year: 1998
#   subentry: 22354006
#   X4 reaction: 28-NI-0(N,X)2-HE-4,,DE
#   X4 source: IAEA-NDS C5 file, database version 2023-08-08
#   X4 link: https://nds.iaea.org/EXFOR/22354006
# target: 
#   Z: 28
#   A: 0
#   nuclide: Ni0
# reaction: 
#   type: (n,xa)
#   ENDF_MF: 5
#   ENDF_MT: 207
#   E-incident [MeV]:  9.050000E+00
#   quantity: 
#     type: emission spectrum
#   datablock: 
#     columns: 5
#     entries: 29
##     E-out         dE-out           xs             dxs       Normalization
##     [MeV]          [MeV]       [mb/MeV.sr]    [mb/MeV.sr]        []
   4.875000E+00   1.250000E-01   2.374000E-06   0.000000E+00   1.000000E+00
   5.125000E+00   1.250000E-01   3.491000E-07   1.083000E-07   1.000000E+00
   5.375000E+00   1.250000E-01   9.309000E-07   1.778000E-07   1.000000E+00
   5.625000E+00   1.250000E-01   3.418000E-06   2.033000E-07   1.000000E+00
   5.875000E+00   1.250000E-01   5.037000E-06   2.053000E-07   1.000000E+00
   6.125000E+00   1.250000E-01   6.134000E-06   2.560000E-07   1.000000E+00
   6.375000E+00   1.250000E-01   7.617999E-06   2.881000E-07   1.000000E+00
   6.625000E+00   1.250000E-01   9.521000E-06   3.200000E-07   1.000000E+00
   6.875000E+00   1.250000E-01   1.190000E-05   3.168000E-07   1.000000E+00
   7.125000E+00   1.250000E-01   1.454000E-05   4.298000E-07   1.000000E+00
   7.375000E+00   1.250000E-01   1.551000E-05   2.220000E-07   1.000000E+00
   7.625000E+00   1.250000E-01   1.637000E-05   2.341000E-07   1.000000E+00
   7.875000E+00   1.250000E-01   1.805000E-05   5.344000E-07   1.000000E+00
   8.125000E+00   1.250000E-01   1.906000E-05   5.238000E-07   1.000000E+00
   8.375000E+00   1.250000E-01   1.908000E-05   3.620000E-07   1.000000E+00
   8.625000E+00   1.250000E-01   1.972000E-05   4.966000E-07   1.000000E+00
   8.875000E+00   1.250000E-01   1.923000E-05   4.070000E-07   1.000000E+00
   9.125000E+00   1.250000E-01   1.781000E-05   3.540000E-07   1.000000E+00
   9.375000E+00   1.250000E-01   1.590000E-05   3.183000E-07   1.000000E+00
   9.625000E+00   1.250000E-01   1.382000E-05   3.816000E-07   1.000000E+00
   9.875000E+00   1.250000E-01   1.174000E-05   3.582000E-07   1.000000E+00
   1.012500E+01   1.250000E-01   9.627000E-06   2.206000E-07   1.000000E+00
   1.037500E+01   1.250000E-01   7.081000E-06   3.349000E-07   1.000000E+00
   1.062500E+01   1.250000E-01   5.330000E-06   2.897000E-07   1.000000E+00
   1.087500E+01   1.250000E-01   4.280000E-06   2.221000E-07   1.000000E+00
   1.112500E+01   1.250000E-01   3.032000E-06   2.235000E-07   1.000000E+00
   1.137500E+01   1.250000E-01   1.628000E-06   2.437000E-07   1.000000E+00
   1.162500E+01   1.250000E-01   6.502000E-07   1.671000E-07   1.000000E+00
   1.187500E+01   1.250000E-01   3.080000E-07   1.308000E-07   1.000000E+00
# reference:
#   author: T.Sanami,M.Baba,T.Kawano,S.Matsuyama,T.Kiyosumi, Y.Nauchi,K.Saito,N.Hirakawa,N.Ito
#   title: High resolution measurements of double-differential  (n,alpha) cross-sections of Ni-58 and Ni-nat  between 4.2 and 6.5 MeV neutrons
#   journal: Jour: Jour. of Nuclear Science and Technology, Vol.35, p.851 (1998)
