# header: 
#   title: Ni0(n,xa) emission spectrum at  6.500000E+00 MeV
#   source: EXFOR
#   user: Arjan Koning
#   date: 2025-08-01
#   format: YANDF-0.2
# exfor: 
#   author: Sanami
#   year: 1998
#   subentry: 22354006
#   X4 reaction: 28-NI-0(N,X)2-HE-4,,DE
#   X4 source: IAEA-NDS C5 file, database version 2023-08-08
#   X4 link: https://nds.iaea.org/EXFOR/22354006
# target: 
#   Z: 28
#   A: 0
#   nuclide: Ni0
# reaction: 
#   type: (n,xa)
#   ENDF_MF: 5
#   ENDF_MT: 207
#   E-incident [MeV]:  6.500000E+00
#   quantity: 
#     type: emission spectrum
#   datablock: 
#     columns: 5
#     entries: 36
##     E-out         dE-out           xs             dxs       Normalization
##     [MeV]          [MeV]       [mb/MeV.sr]    [mb/MeV.sr]        []
   5.100000E+00   1.000000E-01   8.271000E-07   2.080000E-07   1.000000E+00
   5.300000E+00   1.000000E-01   4.002000E-06   1.033000E-06   1.000000E+00
   5.500000E+00   1.000000E-01   3.946000E-06   4.526000E-07   1.000000E+00
   5.700000E+00   1.000000E-01   5.097000E-06   4.430000E-07   1.000000E+00
   5.900000E+00   1.000000E-01   5.957000E-06   3.824000E-07   1.000000E+00
   6.100000E+00   1.000000E-01   7.268000E-06   3.561000E-07   1.000000E+00
   6.300000E+00   1.000000E-01   1.054000E-05   4.949000E-07   1.000000E+00
   6.500000E+00   1.000000E-01   1.389000E-05   1.121000E-06   1.000000E+00
   6.700000E+00   1.000000E-01   1.448000E-05   7.958000E-07   1.000000E+00
   6.900000E+00   1.000000E-01   1.746000E-05   6.439000E-07   1.000000E+00
   7.100000E+00   1.000000E-01   1.942000E-05   6.412000E-07   1.000000E+00
   7.300000E+00   1.000000E-01   2.072000E-05   7.572000E-07   1.000000E+00
   7.500000E+00   1.000000E-01   2.144000E-05   7.672000E-07   1.000000E+00
   7.700000E+00   1.000000E-01   2.149000E-05   1.002000E-06   1.000000E+00
   7.900000E+00   1.000000E-01   2.155000E-05   8.091000E-07   1.000000E+00
   8.100000E+00   1.000000E-01   2.106000E-05   1.092000E-06   1.000000E+00
   8.300000E+00   1.000000E-01   1.960000E-05   5.949000E-07   1.000000E+00
   8.500000E+00   1.000000E-01   1.682000E-05   6.026000E-07   1.000000E+00
   8.700000E+00   1.000000E-01   1.447000E-05   7.429000E-07   1.000000E+00
   8.900000E+00   1.000000E-01   1.264000E-05   5.708000E-07   1.000000E+00
   9.100000E+00   1.000000E-01   1.030000E-05   6.657000E-07   1.000000E+00
   9.300000E+00   1.000000E-01   5.908000E-06   6.120000E-07   1.000000E+00
   9.500000E+00   1.000000E-01   4.682000E-07   3.870000E-07   1.000000E+00
   9.700000E+00   1.000000E-01   2.888000E-07   8.675001E-08   1.000000E+00
   9.900000E+00   1.000000E-01   2.775000E-07   1.372000E-07   1.000000E+00
   1.010000E+01   1.000000E-01   0.000000E+00   0.000000E+00   1.000000E+00
   1.030000E+01   1.000000E-01   0.000000E+00   0.000000E+00   1.000000E+00
   1.050000E+01   1.000000E-01   0.000000E+00   0.000000E+00   1.000000E+00
   1.070000E+01   1.000000E-01   0.000000E+00   0.000000E+00   1.000000E+00
   1.090000E+01   1.000000E-01   0.000000E+00   0.000000E+00   1.000000E+00
   1.110000E+01   1.000000E-01   0.000000E+00   0.000000E+00   1.000000E+00
   1.130000E+01   1.000000E-01   0.000000E+00   0.000000E+00   1.000000E+00
   1.150000E+01   1.000000E-01   0.000000E+00   0.000000E+00   1.000000E+00
   1.170000E+01   1.000000E-01   0.000000E+00   0.000000E+00   1.000000E+00
   1.190000E+01   1.000000E-01   0.000000E+00   0.000000E+00   1.000000E+00
   1.210000E+01   1.000000E-01   0.000000E+00   0.000000E+00   1.000000E+00
# reference:
#   author: T.Sanami,M.Baba,T.Kawano,S.Matsuyama,T.Kiyosumi, Y.Nauchi,K.Saito,N.Hirakawa,N.Ito
#   title: High resolution measurements of double-differential  (n,alpha) cross-sections of Ni-58 and Ni-nat  between 4.2 and 6.5 MeV neutrons
#   journal: Jour: Jour. of Nuclear Science and Technology, Vol.35, p.851 (1998)
