# header: 
#   title: Ni0(n,xa) emission spectrum at  6.100000E+00 MeV
#   source: EXFOR
#   user: Arjan Koning
#   date: 2025-08-01
#   format: YANDF-0.2
# exfor: 
#   author: Sanami
#   year: 1998
#   subentry: 22354006
#   X4 reaction: 28-NI-0(N,X)2-HE-4,,DE
#   X4 source: IAEA-NDS C5 file, database version 2023-08-08
#   X4 link: https://nds.iaea.org/EXFOR/22354006
# target: 
#   Z: 28
#   A: 0
#   nuclide: Ni0
# reaction: 
#   type: (n,xa)
#   ENDF_MF: 5
#   ENDF_MT: 207
#   E-incident [MeV]:  6.100000E+00
#   quantity: 
#     type: emission spectrum
#   datablock: 
#     columns: 5
#     entries: 29
##     E-out         dE-out           xs             dxs       Normalization
##     [MeV]          [MeV]       [mb/MeV.sr]    [mb/MeV.sr]        []
   4.500000E+00   1.000000E-01   7.620000E-07   0.000000E+00   1.000000E+00
   4.700000E+00   1.000000E-01   8.861001E-07   8.312000E-07   1.000000E+00
   4.900000E+00   1.000000E-01   9.824000E-07   7.441000E-07   1.000000E+00
   5.100000E+00   1.000000E-01   1.417000E-06   3.655000E-07   1.000000E+00
   5.300000E+00   1.000000E-01   1.330000E-06   4.359000E-07   1.000000E+00
   5.500000E+00   1.000000E-01   1.964000E-06   2.428000E-07   1.000000E+00
   5.700000E+00   1.000000E-01   2.968000E-06   1.913000E-07   1.000000E+00
   5.900000E+00   1.000000E-01   3.546000E-06   1.802000E-07   1.000000E+00
   6.100000E+00   1.000000E-01   5.382000E-06   4.710000E-07   1.000000E+00
   6.300000E+00   1.000000E-01   7.967001E-06   5.118000E-07   1.000000E+00
   6.500000E+00   1.000000E-01   9.514000E-06   6.148000E-07   1.000000E+00
   6.700000E+00   1.000000E-01   1.230000E-05   6.664000E-07   1.000000E+00
   6.900000E+00   1.000000E-01   1.434000E-05   7.865000E-07   1.000000E+00
   7.100000E+00   1.000000E-01   1.455000E-05   5.710000E-07   1.000000E+00
   7.300000E+00   1.000000E-01   1.556000E-05   5.547000E-07   1.000000E+00
   7.500000E+00   1.000000E-01   1.760000E-05   6.531000E-07   1.000000E+00
   7.700000E+00   1.000000E-01   1.885000E-05   5.721000E-07   1.000000E+00
   7.900000E+00   1.000000E-01   2.076000E-05   9.320000E-07   1.000000E+00
   8.100000E+00   1.000000E-01   2.100000E-05   7.498000E-07   1.000000E+00
   8.300000E+00   1.000000E-01   1.915000E-05   6.622000E-07   1.000000E+00
   8.500000E+00   1.000000E-01   1.767000E-05   9.192000E-07   1.000000E+00
   8.700000E+00   1.000000E-01   1.560000E-05   6.140000E-07   1.000000E+00
   8.900000E+00   1.000000E-01   1.422000E-05   8.172000E-07   1.000000E+00
   9.100000E+00   1.000000E-01   1.011000E-05   9.113000E-07   1.000000E+00
   9.300000E+00   1.000000E-01   3.143000E-06   6.283000E-07   1.000000E+00
   9.500000E+00   1.000000E-01   5.920000E-07   2.064000E-07   1.000000E+00
   9.700000E+00   1.000000E-01   1.713000E-07   4.883000E-08   1.000000E+00
   9.900000E+00   1.000000E-01   1.146000E-07   3.594000E-08   1.000000E+00
   1.010000E+01   1.000000E-01   0.000000E+00   0.000000E+00   1.000000E+00
# reference:
#   author: T.Sanami,M.Baba,T.Kawano,S.Matsuyama,T.Kiyosumi, Y.Nauchi,K.Saito,N.Hirakawa,N.Ito
#   title: High resolution measurements of double-differential  (n,alpha) cross-sections of Ni-58 and Ni-nat  between 4.2 and 6.5 MeV neutrons
#   journal: Jour: Jour. of Nuclear Science and Technology, Vol.35, p.851 (1998)
