# header: 
#   title: Ni0(n,xa) emission spectrum at  1.410000E+01 MeV
#   source: EXFOR
#   user: Arjan Koning
#   date: 2025-12-18
#   format: YANDF-0.4
# exfor: 
#   author: Sanami
#   year: 1998
#   subentry: 22354006
#   X4 reaction: 28-NI-0(N,X)2-HE-4,,DE
#   X4 source: IAEA-NDS C5 file, database version 2023-08-08
#   X4 link: https://nds.iaea.org/EXFOR/22354006
# target: 
#   Z: 28
#   A: 0
#   nuclide: Ni0
# reaction: 
#   type: (n,xa)
#   ENDF_MF: 5
#   ENDF_MT: 207
#   E-incident [MeV]:  1.410000E+01
#   quantity: 
#     type: emission spectrum
#   datablock: 
#     columns: 5
#     entries: 27
##     E-out         dE-out           xs             dxs       Normalization
##     [MeV]          [MeV]       [mb/MeV.sr]    [mb/MeV.sr]        []
   4.750000E+00   2.500000E-01   7.235000E-07   2.345000E-07   1.000000E+00
   5.250000E+00   2.500000E-01   1.799000E-06   4.568000E-07   1.000000E+00
   5.750000E+00   2.500000E-01   4.657000E-06   6.085000E-07   1.000000E+00
   6.250000E+00   2.500000E-01   7.614000E-06   8.070000E-07   1.000000E+00
   6.750000E+00   2.500000E-01   9.505000E-06   1.053000E-06   1.000000E+00
   7.250000E+00   2.500000E-01   1.319000E-05   1.359000E-06   1.000000E+00
   7.750000E+00   2.500000E-01   1.549000E-05   1.978000E-06   1.000000E+00
   8.250000E+00   2.500000E-01   1.522000E-05   2.137000E-06   1.000000E+00
   8.750000E+00   2.500000E-01   1.644000E-05   2.464000E-06   1.000000E+00
   9.250000E+00   2.500000E-01   1.625000E-05   1.926000E-06   1.000000E+00
   9.750000E+00   2.500000E-01   1.482000E-05   1.722000E-06   1.000000E+00
   1.025000E+01   2.500000E-01   1.228000E-05   1.337000E-06   1.000000E+00
   1.075000E+01   2.500000E-01   8.996000E-06   1.173000E-06   1.000000E+00
   1.125000E+01   2.500000E-01   6.997000E-06   1.234000E-06   1.000000E+00
   1.175000E+01   2.500000E-01   5.513000E-06   6.236000E-07   1.000000E+00
   1.225000E+01   2.500000E-01   3.865000E-06   6.197000E-07   1.000000E+00
   1.275000E+01   2.500000E-01   3.007000E-06   4.582000E-07   1.000000E+00
   1.325000E+01   2.500000E-01   1.934000E-06   7.015000E-07   1.000000E+00
   1.375000E+01   2.500000E-01   2.034000E-06   3.957000E-07   1.000000E+00
   1.425000E+01   2.500000E-01   2.479000E-06   5.784000E-07   1.000000E+00
   1.475000E+01   2.500000E-01   2.325000E-06   3.273000E-07   1.000000E+00
   1.525000E+01   2.500000E-01   5.705000E-07   4.960000E-07   1.000000E+00
   1.575000E+01   2.500000E-01   6.967000E-07   1.678000E-07   1.000000E+00
   1.625000E+01   2.500000E-01   2.592000E-07   5.762000E-08   1.000000E+00
   1.675000E+01   2.500000E-01   1.831000E-08   2.046000E-08   1.000000E+00
   1.725000E+01   2.500000E-01   4.174000E-08   4.518000E-07   1.000000E+00
   1.775000E+01   2.500000E-01   0.000000E+00   0.000000E+00   1.000000E+00
# reference:
#   author: T.Sanami,M.Baba,T.Kawano,S.Matsuyama,T.Kiyosumi, Y.Nauchi,K.Saito,N.Hirakawa,N.Ito
#   title: High resolution measurements of double-differential  (n,alpha) cross-sections of Ni-58 and Ni-nat  between 4.2 and 6.5 MeV neutrons
#   journal: Jour: Jour. of Nuclear Science and Technology, Vol.35, p.851 (1998)
