# header: 
#   title: Ni0(n,xa) emission spectrum at  7.900000E+00 MeV
#   source: EXFOR
#   user: Arjan Koning
#   date: 2025-12-01
#   format: YANDF-0.4
# exfor: 
#   author: Sanami
#   year: 1998
#   subentry: 22354006
#   X4 reaction: 28-NI-0(N,X)2-HE-4,,DE
#   X4 source: IAEA-NDS C5 file, database version 2023-08-08
#   X4 link: https://nds.iaea.org/EXFOR/22354006
# target: 
#   Z: 28
#   A: 0
#   nuclide: Ni0
# reaction: 
#   type: (n,xa)
#   ENDF_MF: 5
#   ENDF_MT: 207
#   E-incident [MeV]:  7.900000E+00
#   quantity: 
#     type: emission spectrum
#   datablock: 
#     columns: 5
#     entries: 36
##     E-out         dE-out           xs             dxs       Normalization
##     [MeV]          [MeV]       [mb/MeV.sr]    [mb/MeV.sr]        []
   4.900000E+00   1.000000E-01   9.790000E-08   2.144000E-07   1.000000E+00
   5.100000E+00   1.000000E-01   4.091000E-07   1.532000E-07   1.000000E+00
   5.300000E+00   1.000000E-01   5.895000E-07   1.975000E-07   1.000000E+00
   5.500000E+00   1.000000E-01   1.621000E-06   2.465000E-07   1.000000E+00
   5.700000E+00   1.000000E-01   2.281000E-06   2.753000E-07   1.000000E+00
   5.900000E+00   1.000000E-01   3.344000E-06   3.765000E-07   1.000000E+00
   6.100000E+00   1.000000E-01   4.367000E-06   5.075000E-07   1.000000E+00
   6.300000E+00   1.000000E-01   5.967000E-06   6.206000E-07   1.000000E+00
   6.500000E+00   1.000000E-01   8.006000E-06   8.467000E-07   1.000000E+00
   6.700000E+00   1.000000E-01   1.014000E-05   1.104000E-06   1.000000E+00
   6.900000E+00   1.000000E-01   1.156000E-05   1.347000E-06   1.000000E+00
   7.100000E+00   1.000000E-01   1.451000E-05   1.632000E-06   1.000000E+00
   7.300000E+00   1.000000E-01   1.695000E-05   1.732000E-06   1.000000E+00
   7.500000E+00   1.000000E-01   1.886000E-05   2.003000E-06   1.000000E+00
   7.700000E+00   1.000000E-01   2.084000E-05   2.237000E-06   1.000000E+00
   7.900000E+00   1.000000E-01   2.344000E-05   2.413000E-06   1.000000E+00
   8.100000E+00   1.000000E-01   2.490000E-05   2.509000E-06   1.000000E+00
   8.300000E+00   1.000000E-01   2.457000E-05   2.658000E-06   1.000000E+00
   8.500000E+00   1.000000E-01   2.597000E-05   2.641000E-06   1.000000E+00
   8.700000E+00   1.000000E-01   2.271000E-05   2.323000E-06   1.000000E+00
   8.900000E+00   1.000000E-01   2.411000E-05   2.542000E-06   1.000000E+00
   9.100000E+00   1.000000E-01   2.165000E-05   2.309000E-06   1.000000E+00
   9.300000E+00   1.000000E-01   1.763000E-05   1.878000E-06   1.000000E+00
   9.500000E+00   1.000000E-01   1.564000E-05   1.670000E-06   1.000000E+00
   9.700000E+00   1.000000E-01   1.348000E-05   1.397000E-06   1.000000E+00
   9.900000E+00   1.000000E-01   1.177000E-05   1.252000E-06   1.000000E+00
   1.010000E+01   1.000000E-01   9.641000E-06   1.031000E-06   1.000000E+00
   1.030000E+01   1.000000E-01   6.353000E-06   6.937000E-07   1.000000E+00
   1.050000E+01   1.000000E-01   3.728000E-06   4.795000E-07   1.000000E+00
   1.070000E+01   1.000000E-01   2.024000E-06   3.303000E-07   1.000000E+00
   1.090000E+01   1.000000E-01   5.850000E-07   1.448000E-07   1.000000E+00
   1.110000E+01   1.000000E-01   1.575000E-07   6.895000E-08   1.000000E+00
   1.130000E+01   1.000000E-01   0.000000E+00   0.000000E+00   1.000000E+00
   1.150000E+01   1.000000E-01   0.000000E+00   0.000000E+00   1.000000E+00
   1.170000E+01   1.000000E-01   0.000000E+00   0.000000E+00   1.000000E+00
   1.190000E+01   1.000000E-01   0.000000E+00   0.000000E+00   1.000000E+00
# reference:
#   author: T.Sanami,M.Baba,T.Kawano,S.Matsuyama,T.Kiyosumi, Y.Nauchi,K.Saito,N.Hirakawa,N.Ito
#   title: High resolution measurements of double-differential  (n,alpha) cross-sections of Ni-58 and Ni-nat  between 4.2 and 6.5 MeV neutrons
#   journal: Jour: Jour. of Nuclear Science and Technology, Vol.35, p.851 (1998)
