# header: 
#   title: Ni0(n,xa) emission spectrum at  9.600000E+00 MeV
#   source: EXFOR
#   user: Arjan Koning
#   date: 2025-10-25
#   format: YANDF-0.4
# exfor: 
#   author: Sanami
#   year: 1998
#   subentry: 22354006
#   X4 reaction: 28-NI-0(N,X)2-HE-4,,DE
#   X4 source: IAEA-NDS C5 file, database version 2023-08-08
#   X4 link: https://nds.iaea.org/EXFOR/22354006
# target: 
#   Z: 28
#   A: 0
#   nuclide: Ni0
# reaction: 
#   type: (n,xa)
#   ENDF_MF: 5
#   ENDF_MT: 207
#   E-incident [MeV]:  9.600000E+00
#   quantity: 
#     type: emission spectrum
#   datablock: 
#     columns: 5
#     entries: 29
##     E-out         dE-out           xs             dxs       Normalization
##     [MeV]          [MeV]       [mb/MeV.sr]    [mb/MeV.sr]        []
   5.125000E+00   1.250000E-01   7.024000E-07   3.188000E-07   1.000000E+00
   5.375000E+00   1.250000E-01   5.482000E-07   1.886000E-07   1.000000E+00
   5.625000E+00   1.250000E-01   2.204000E-06   4.412000E-07   1.000000E+00
   5.875000E+00   1.250000E-01   4.293000E-06   2.910000E-07   1.000000E+00
   6.125000E+00   1.250000E-01   5.671000E-06   1.959000E-07   1.000000E+00
   6.375000E+00   1.250000E-01   6.909000E-06   3.660000E-07   1.000000E+00
   6.625000E+00   1.250000E-01   9.749000E-06   3.475000E-07   1.000000E+00
   6.875000E+00   1.250000E-01   1.256000E-05   5.432000E-07   1.000000E+00
   7.125000E+00   1.250000E-01   1.496000E-05   3.497000E-07   1.000000E+00
   7.375000E+00   1.250000E-01   1.657000E-05   4.268000E-07   1.000000E+00
   7.625000E+00   1.250000E-01   1.923000E-05   5.879000E-07   1.000000E+00
   7.875000E+00   1.250000E-01   1.940000E-05   6.356000E-07   1.000000E+00
   8.125000E+00   1.250000E-01   1.895000E-05   5.313000E-07   1.000000E+00
   8.375000E+00   1.250000E-01   1.833000E-05   6.073000E-07   1.000000E+00
   8.625000E+00   1.250000E-01   1.748000E-05   3.190000E-07   1.000000E+00
   8.875000E+00   1.250000E-01   1.675000E-05   4.328000E-07   1.000000E+00
   9.125000E+00   1.250000E-01   1.603000E-05   4.700000E-07   1.000000E+00
   9.375000E+00   1.250000E-01   1.566000E-05   2.733000E-07   1.000000E+00
   9.625000E+00   1.250000E-01   1.366000E-05   4.711000E-07   1.000000E+00
   9.875000E+00   1.250000E-01   1.123000E-05   4.561000E-07   1.000000E+00
   1.012500E+01   1.250000E-01   1.006000E-05   3.633000E-07   1.000000E+00
   1.037500E+01   1.250000E-01   8.915000E-06   5.285000E-07   1.000000E+00
   1.062500E+01   1.250000E-01   6.389000E-06   5.209000E-07   1.000000E+00
   1.087500E+01   1.250000E-01   5.490000E-06   3.432000E-07   1.000000E+00
   1.112500E+01   1.250000E-01   3.654000E-06   5.348000E-07   1.000000E+00
   1.137500E+01   1.250000E-01   2.277000E-06   3.996000E-07   1.000000E+00
   1.162500E+01   1.250000E-01   1.606000E-06   2.334000E-07   1.000000E+00
   1.187500E+01   1.250000E-01   8.541000E-07   2.174000E-07   1.000000E+00
   1.212500E+01   1.250000E-01   2.449000E-06   8.297000E-06   1.000000E+00
# reference:
#   author: T.Sanami,M.Baba,T.Kawano,S.Matsuyama,T.Kiyosumi, Y.Nauchi,K.Saito,N.Hirakawa,N.Ito
#   title: High resolution measurements of double-differential  (n,alpha) cross-sections of Ni-58 and Ni-nat  between 4.2 and 6.5 MeV neutrons
#   journal: Jour: Jour. of Nuclear Science and Technology, Vol.35, p.851 (1998)
