# header: 
#   title: Nb93(i,xa) DDX at  2.080000E+02 MeV
#   source: EXFOR
#   user: Arjan Koning
#   date: 2025-12-18
#   format: YANDF-0.4
# exfor: 
#   author: Fukuda
#   year: 1984
#   subentry: E1192043
#   X4 reaction: 41-NB-93(7-N-14,X)2-HE-4,,DA/DE
#   X4 source: IAEA-NDS C5 file, database version 2023-08-08
#   X4 link: https://nds.iaea.org/EXFOR/E1192043
# target: 
#   Z: 41
#   A: 93
#   nuclide: Nb93
# reaction: 
#   type: (i,xa)
#   ENDF_MF: 6
#   ENDF_MT: 207
#   E-incident [MeV]:  2.080000E+02
#   quantity: 
#     type: DDX
#   datablock: 
#     columns: 5
#     entries: 39
##     E-out         dE-out           xs             dxs       Normalization
##     [MeV]          [MeV]       [mb/MeV.sr]    [mb/MeV.sr]        []
   4.669000E+00   0.000000E+00   6.275000E-09   1.864000E-09   9.000000E+01   1.000000E+00
   6.470000E+00   0.000000E+00   8.715000E-07   1.307300E-07   9.000000E+01   1.000000E+00
   8.468000E+00   0.000000E+00   3.394000E-06   5.091000E-07   9.000000E+01   1.000000E+00
   1.014000E+01   0.000000E+00   7.409000E-06   1.111400E-06   9.000000E+01   1.000000E+00
   1.231000E+01   0.000000E+00   9.775999E-06   1.466400E-06   9.000000E+01   1.000000E+00
   1.416000E+01   0.000000E+00   9.298999E-06   1.394900E-06   9.000000E+01   1.000000E+00
   1.600000E+01   0.000000E+00   7.417000E-06   1.112600E-06   9.000000E+01   1.000000E+00
   1.801000E+01   0.000000E+00   5.349000E-06   8.023500E-07   9.000000E+01   1.000000E+00
   2.003000E+01   0.000000E+00   3.577000E-06   5.365500E-07   9.000000E+01   1.000000E+00
   2.188000E+01   0.000000E+00   2.453000E-06   3.679500E-07   9.000000E+01   1.000000E+00
   2.389000E+01   0.000000E+00   1.769000E-06   2.653500E-07   9.000000E+01   1.000000E+00
   2.574000E+01   0.000000E+00   1.213000E-06   1.819500E-07   9.000000E+01   1.000000E+00
   2.775000E+01   0.000000E+00   9.203000E-07   1.380500E-07   9.000000E+01   1.000000E+00
   2.959000E+01   0.000000E+00   6.472000E-07   9.708000E-08   9.000000E+01   1.000000E+00
   3.161000E+01   0.000000E+00   4.668000E-07   7.001999E-08   9.000000E+01   1.000000E+00
   3.345000E+01   0.000000E+00   3.818000E-07   5.727000E-08   9.000000E+01   1.000000E+00
   3.530000E+01   0.000000E+00   2.753000E-07   4.129500E-08   9.000000E+01   1.000000E+00
   3.714000E+01   0.000000E+00   2.196000E-07   3.294000E-08   9.000000E+01   1.000000E+00
   3.916000E+01   0.000000E+00   1.666000E-07   2.499000E-08   9.000000E+01   1.000000E+00
   4.100000E+01   0.000000E+00   1.397000E-07   2.095500E-08   9.000000E+01   1.000000E+00
   4.285000E+01   0.000000E+00   1.232000E-07   1.848000E-08   9.000000E+01   1.000000E+00
   4.503000E+01   0.000000E+00   7.642000E-08   1.146300E-08   9.000000E+01   1.000000E+00
   4.670000E+01   0.000000E+00   6.250000E-08   9.375000E-09   9.000000E+01   1.000000E+00
   4.888000E+01   0.000000E+00   5.654000E-08   8.481000E-09   9.000000E+01   1.000000E+00
   5.056000E+01   0.000000E+00   4.078000E-08   6.117000E-09   9.000000E+01   1.000000E+00
   5.257000E+01   0.000000E+00   3.093000E-08   4.336000E-09   9.000000E+01   1.000000E+00
   5.442000E+01   0.000000E+00   2.529000E-08   4.124000E-09   9.000000E+01   1.000000E+00
   5.626000E+01   0.000000E+00   2.069000E-08   3.373000E-09   9.000000E+01   1.000000E+00
   5.828000E+01   0.000000E+00   1.492000E-08   2.722000E-09   9.000000E+01   1.000000E+00
   6.012000E+01   0.000000E+00   1.190000E-08   2.293000E-09   9.000000E+01   1.000000E+00
   6.197000E+01   0.000000E+00   1.050000E-08   2.336000E-09   9.000000E+01   1.000000E+00
   6.381000E+01   0.000000E+00   8.164000E-09   1.975000E-09   9.000000E+01   1.000000E+00
   6.566000E+01   0.000000E+00   5.599000E-09   1.602000E-09   9.000000E+01   1.000000E+00
   6.767000E+01   0.000000E+00   4.816000E-09   1.536000E-09   9.000000E+01   1.000000E+00
   6.968000E+01   0.000000E+00   4.818000E-09   1.755000E-09   9.000000E+01   1.000000E+00
   7.153000E+01   0.000000E+00   2.569000E-09   1.178000E-09   9.000000E+01   1.000000E+00
   7.337000E+01   0.000000E+00   2.570000E-09   1.179000E-09   9.000000E+01   1.000000E+00
   7.539000E+01   0.000000E+00   2.102000E-09   1.042000E-09   9.000000E+01   1.000000E+00
   7.924000E+01   0.000000E+00   2.573000E-09   1.276000E-09   9.000000E+01   1.000000E+00
# reference:
#   author: T.Fukuda, M.Ishihara, H.Ogata, I.Miura, T.Shimoda, K.Katori, S.Shimoura, M.-K.Tanaka, E.Takada, T.Otsuka
#   title: Light-particle emission in the reaction of 93Nb+14N at 132, 159 and 208 MeV
#   journal: Jour: Nuclear Physics, Section A, Vol.425, Issue.3, p.548 (1984)
