# header: 
#   title: Er170(n,res) resonance parameter
#   source: EXFOR
#   user: Arjan Koning
#   date: 2025-08-01
#   format: YANDF-0.2
# exfor: 
#   author: Liou
#   year: 1972
#   subentry: 105910122
#   X4 reaction: 68-ER-170(N,EL),,WID/RED
#   X4 source: IAEA-NDS C5 file, database version 2023-08-08
#   X4 link: https://nds.iaea.org/EXFOR/105910122
# target: 
#   Z: 68
#   A: 170
#   nuclide: Er170
# reaction: 
#   type: (n,res)
#   ENDF_MF: 402
#   ENDF_MT: 151
#   quantity: 
#     type: resonance parameter
#   datablock: 
#     columns: 5
#     entries: 94
##       E             dE             par           dpar       Normalization
##     [eV]           [eV]            []             []             []
   9.507000E-05   1.000000E-07   9.000000E-02   4.000000E-03   1.000000E+00
   2.840300E-04   2.600000E-07   3.400000E-02   2.100000E-03   1.000000E+00
   4.966900E-04   3.000000E-07   3.000000E-02   1.800000E-03   1.000000E+00
   5.981800E-04   5.100000E-07   1.700000E-04   6.000000E-05   1.000000E+00
   7.487200E-04   5.600000E-07   4.600000E-03   5.500000E-04   1.000000E+00
   9.355500E-04   3.900000E-07   5.200000E-02   3.300000E-03   1.000000E+00
   9.750000E-04   1.060000E-06   2.600000E-04   9.000000E-05   1.000000E+00
   1.089000E-03   5.000000E-07   2.300000E-02   1.500000E-03   1.000000E+00
   1.230700E-03   6.000000E-07   1.080000E-03   2.000000E-04   1.000000E+00
   1.391100E-03   7.000000E-07   7.600001E-02   5.400000E-03   1.000000E+00
   1.524000E-03   8.000000E-07   1.820000E-03   4.100000E-04   1.000000E+00
   1.844100E-03   2.800000E-06   5.800000E-04   2.600000E-04   1.000000E+00
   2.009600E-03   6.000000E-07   2.400000E-02   1.800000E-03   1.000000E+00
   2.101100E-03   7.000000E-07   3.100000E-02   2.200000E-03   1.000000E+00
   2.190900E-03   3.600000E-06   1.130000E-03   4.300000E-04   1.000000E+00
   2.249300E-03   7.000000E-07   4.500000E-02   3.400000E-03   1.000000E+00
   2.377900E-03   8.000000E-07   1.170000E-02   1.600000E-03   1.000000E+00
   2.594000E-03   4.600000E-06   7.500000E-04   3.200000E-04   1.000000E+00
   2.830600E-03   1.000000E-06   8.400001E-02   8.500000E-03   1.000000E+00
   2.977800E-03   1.100000E-06   3.300000E-03   4.600000E-04   1.000000E+00
   3.302100E-03   1.300000E-06   1.130000E-02   1.200000E-03   1.000000E+00
   3.352800E-03   3.400000E-06   9.500000E-04   4.200000E-04   1.000000E+00
   3.464400E-03   1.400000E-06   3.300000E-03   1.200000E-03   1.000000E+00
   3.715900E-03   1.600000E-06   1.920000E-03   6.600000E-04   1.000000E+00
   3.843900E-03   1.700000E-06   4.800000E-03   1.100000E-03   1.000000E+00
   4.123600E-03   1.800000E-06   5.600000E-03   8.000000E-04   1.000000E+00
   4.193300E-03   1.900000E-06   1.820000E-02   1.900000E-03   1.000000E+00
   4.240900E-03   1.900000E-06   2.100000E-02   2.200000E-03   1.000000E+00
   4.421500E-03   2.000000E-06   2.200000E-02   2.300000E-03   1.000000E+00
   4.599600E-03   5.500000E-06   1.600000E-03   7.000000E-04   1.000000E+00
   4.715100E-03   2.200000E-06   2.000000E-02   2.000000E-03   1.000000E+00
   5.449500E-03   2.800000E-06   6.600001E-02   6.800000E-03   1.000000E+00
   5.946400E-03   3.200000E-06   1.530000E-01   2.600000E-02   1.000000E+00
   6.032000E-03   3.200000E-06   3.100000E-02   3.900000E-03   1.000000E+00
   6.235800E-03   3.400000E-06   6.100000E-02   6.300000E-03   1.000000E+00
   6.385000E-03   3.500000E-06   3.900000E-03   1.500000E-03   1.000000E+00
   6.638500E-03   3.700000E-06   1.410000E-02   2.700000E-03   1.000000E+00
   6.831900E-03   3.900000E-06   5.100000E-03   2.400000E-03   1.000000E+00
   6.862900E-03   3.900000E-06   9.200000E-03   3.400000E-03   1.000000E+00
   7.187200E-03   4.200000E-06   7.600000E-03   1.200000E-03   1.000000E+00
   7.286200E-03   4.300000E-06   3.600000E-02   5.000000E-03   1.000000E+00
   8.223500E-03   5.100000E-06   1.430000E-02   2.700000E-03   1.000000E+00
   8.311000E-03   5.200000E-06   7.100000E-02   1.100000E-02   1.000000E+00
   8.405100E-03   5.300000E-06   2.600000E-01   3.800000E-02   1.000000E+00
   8.894901E-03   5.800000E-06   1.330000E-02   3.200000E-03   1.000000E+00
   9.348599E-03   6.200000E-06   1.760000E-02   5.200000E-03   1.000000E+00
   9.803800E-03   6.600000E-06   6.300000E-02   7.600000E-03   1.000000E+00
   1.005400E-02   7.000000E-06   1.500000E-02   4.500000E-03   1.000000E+00
   1.022900E-02   7.000000E-06   4.000000E-02   6.000000E-03   1.000000E+00
   1.032900E-02   7.000000E-06   8.200000E-02   1.200000E-02   1.000000E+00
   1.110300E-02   8.000000E-06   7.700000E-03   2.900000E-03   1.000000E+00
   1.120800E-02   8.000000E-06   7.300001E-02   1.300000E-02   1.000000E+00
   1.128100E-02   8.000000E-06   1.790000E-02   5.700000E-03   1.000000E+00
   1.148000E-02   8.000000E-06   8.500001E-02   1.300000E-02   1.000000E+00
   1.155700E-02   9.000000E-06   7.200000E-03   3.600000E-03   1.000000E+00
   1.160800E-02   9.000000E-06   4.700000E-02   7.400000E-03   1.000000E+00
   1.170200E-02   9.000000E-06   1.900000E-02   9.200000E-03   1.000000E+00
   1.179800E-02   9.000000E-06   1.470000E-02   5.500000E-03   1.000000E+00
   1.242800E-02   9.000000E-06   7.700001E-02   1.100000E-02   1.000000E+00
   1.321200E-02   9.000000E-06   4.600000E-02   8.700000E-03   1.000000E+00
   1.346500E-02   5.000000E-06   8.600000E-03   3.000000E-03   1.000000E+00
   1.380600E-02   6.000000E-06   5.000000E-02   8.000000E-03   1.000000E+00
   1.393200E-02   6.000000E-06   7.000001E-02   1.000000E-02   1.000000E+00
   1.456900E-02   6.000000E-06   2.900000E-02   5.000000E-03   1.000000E+00
   1.540400E-02   7.000000E-06   1.090000E-02   3.200000E-03   1.000000E+00
   1.560900E-02   7.000000E-06   8.000001E-02   1.300000E-02   1.000000E+00
   1.577700E-02   7.000000E-06   4.900000E-02   7.200000E-03   1.000000E+00
   1.604500E-02   7.000000E-06   5.400001E-02   8.700000E-03   1.000000E+00
   1.614200E-02   7.000000E-06   8.700000E-02   1.600000E-02   1.000000E+00
   1.644800E-02   7.000000E-06   4.100000E-02   8.600000E-03   1.000000E+00
   1.648800E-02   8.000000E-06   1.360000E-02   4.700000E-03   1.000000E+00
   1.686900E-02   8.000000E-06   7.300001E-02   1.400000E-02   1.000000E+00
   1.701200E-02   8.000000E-06   3.500000E-02   8.400000E-03   1.000000E+00
   1.705800E-02   8.000000E-06   3.400000E-02   8.400000E-03   1.000000E+00
   1.732000E-02   8.000000E-06   4.500000E-02   9.900000E-03   1.000000E+00
   1.777300E-02   8.000000E-06   5.800000E-02   1.100000E-02   1.000000E+00
   1.849200E-02   9.000000E-06   2.200000E-02   6.600000E-03   1.000000E+00
   1.862100E-02   9.000000E-06   1.060000E-01   1.600000E-02   1.000000E+00
   1.931900E-02   9.000000E-06   3.500000E-02   6.500000E-03   1.000000E+00
   1.953600E-02   1.000000E-05   4.300000E-02   1.100000E-02   1.000000E+00
   1.997800E-02   1.000000E-05   3.800000E-02   7.800000E-03   1.000000E+00
   2.030100E-02   1.000000E-05   1.970000E-02   4.900000E-03   1.000000E+00
   2.056600E-02   1.000000E-05   1.190000E-01   2.100000E-02   1.000000E+00
   2.100300E-02   1.000000E-05   5.300000E-02   1.100000E-02   1.000000E+00
   2.110200E-02   1.100000E-05   9.600001E-02   1.800000E-02   1.000000E+00
   2.151700E-02   1.100000E-05   4.500000E-02   8.200000E-03   1.000000E+00
   2.193900E-02   1.100000E-05   1.150000E-01   2.000000E-02   1.000000E+00
   2.232200E-02   1.200000E-05   2.700000E-02   1.000000E-02   1.000000E+00
   2.237400E-02   1.200000E-05   3.100000E-02   1.100000E-02   1.000000E+00
   2.258700E-02   1.200000E-05   6.500001E-02   1.200000E-02   1.000000E+00
   2.280300E-02   1.200000E-05   2.500000E-02   8.600000E-03   1.000000E+00
   2.290400E-02   1.200000E-05   2.800000E-02   1.100000E-02   1.000000E+00
   2.324000E-02   1.200000E-05   8.200000E-02   2.000000E-02   1.000000E+00
   2.369500E-02   1.200000E-05   5.500000E-02   1.300000E-02   1.000000E+00
# reference:
#   author: H.I.Liou,H.S.Camarda,S.Wynchank,M.Slagowitz,G.Hacken, F.Rahn,J.Rainwater
#   title: Neutron-Resonance Spectroscopy. VIII. The Separated  Isotopes of Erbium: Evidence for Dyson's Theory  Concerning Level Spacings.
#   journal: Jour: Physical Review, Part C, Nuclear Physics, Vol.5, p.974 (1972)
