# header: 
#   title: Au197(n,res) resonance parameter
#   source: EXFOR
#   user: Arjan Koning
#   date: 2025-12-18
#   format: YANDF-0.4
# exfor: 
#   author: Desjardins
#   year: 1960
#   subentry: 119480093
#   X4 reaction: 79-AU-197(N,G),,WID
#   X4 source: IAEA-NDS C5 file, database version 2023-08-08
#   X4 link: https://nds.iaea.org/EXFOR/119480093
# target: 
#   Z: 79
#   A: 197
#   nuclide: Au197
# reaction: 
#   type: (n,res)
#   ENDF_MF: 402
#   ENDF_MT: 151
#   quantity: 
#     type: resonance parameter
#   datablock: 
#     columns: 5
#     entries: 28
##       E             dE             par           dpar       Normalization
##     [eV]           [eV]            []             []             []
   5.820000E-05   1.000000E-07   1.430000E-01   3.000000E-02   1.000000E+00
   6.030000E-05   1.000000E-07   1.200000E-01   2.000000E-02   1.000000E+00
   7.870000E-05   2.000000E-07   1.450000E-01   1.500000E-02   1.000000E+00
   1.073000E-04   2.000000E-07   1.650000E-01   1.500000E-02   1.000000E+00
   1.448000E-04   3.000000E-07   1.900000E-01   2.000000E-02   1.000000E+00
   1.518000E-04   3.000000E-07   1.790000E-01   3.000000E-02   1.000000E+00
   1.907000E-04   4.000000E-07   1.890000E-01   2.000000E-02   1.000000E+00
   2.414000E-04   5.000000E-07   1.850000E-01   2.000000E-02   1.000000E+00
   2.634000E-04   5.000000E-07   1.360000E-01   1.500000E-02   1.000000E+00
   2.750000E-04   5.000000E-07   1.270000E-01   5.000000E-02   1.000000E+00
   2.945000E-04   6.000000E-07   2.500000E-01   8.000001E-02   1.000000E+00
   3.570000E-04   7.000000E-07   1.770000E-01   2.500000E-02   1.000000E+00
   4.030000E-04   8.000000E-07   5.900000E-01   8.000001E-02   1.000000E+00
   4.420000E-04   9.000000E-07   2.800000E-01   7.000001E-02   1.000000E+00
   4.530000E-04   9.000000E-07   2.500000E-01   5.000000E-02   1.000000E+00
   4.790000E-04   1.000000E-06   1.800000E-01   7.000001E-02   1.000000E+00
   5.380000E-04   1.100000E-06   2.800000E-01   5.000000E-02   1.000000E+00
   5.510000E-04   1.100000E-06   2.820000E-01   4.000000E-02   1.000000E+00
   6.060000E-04   1.200000E-06   1.400000E-01   1.500000E-02   1.000000E+00
   6.210000E-04   1.200000E-06   1.600000E-01   4.000000E-02   1.000000E+00
   6.440000E-04   1.300000E-06   2.700000E-01   1.000000E-01   1.000000E+00
   7.210000E-04   1.500000E-06   2.100000E-01   3.500000E-02   1.000000E+00
   7.660000E-04   1.600000E-06   1.540000E-01   6.000000E-02   1.000000E+00
   7.910000E-04   1.800000E-06   1.700000E-01   4.000000E-02   1.000000E+00
   8.030000E-04   1.800000E-06   2.170000E-01   1.000000E-01   1.000000E+00
   8.710000E-04   2.000000E-06   1.500000E-01   7.000001E-02   1.000000E+00
   8.860000E-04   2.100000E-06   1.250000E-01   5.000000E-02   1.000000E+00
   9.400000E-04   2.300000E-06   1.100000E-01   0.000000E+00   1.000000E+00
# reference:
#   author: J.S.Desjardins,J.L.Rosen,W.W.Havens Jr,J.Rainwater
#   title: Slow Neutron Resonance Spectroscopy. II. Ag, Au, Ta
#   journal: Jour: Physical Review, Vol.120, p.2214 (1960)
