# header: 
#   title: Au197(n,res) resonance parameter
#   source: EXFOR
#   user: Arjan Koning
#   date: 2025-12-01
#   format: YANDF-0.4
# exfor: 
#   author: Desjardins
#   year: 1960
#   subentry: 119480091
#   X4 reaction: 79-AU-197(N,0),,EN
#   X4 source: IAEA-NDS C5 file, database version 2023-08-08
#   X4 link: https://nds.iaea.org/EXFOR/119480091
# target: 
#   Z: 79
#   A: 197
#   nuclide: Au197
# reaction: 
#   type: (n,res)
#   ENDF_MF: 402
#   ENDF_MT: 151
#   quantity: 
#     type: resonance parameter
#   datablock: 
#     columns: 5
#     entries: 55
##       E             dE             par           dpar       Normalization
##     [eV]           [eV]            []             []             []
   4.670000E-05   8.000000E-08   4.670000E+01   8.000000E-02   1.000000E+00
   5.820000E-05   1.000000E-07   5.820000E+01   1.000000E-01   1.000000E+00
   6.030000E-05   1.000000E-07   6.030000E+01   1.000000E-01   1.000000E+00
   7.870000E-05   2.000000E-07   7.870000E+01   2.000000E-01   1.000000E+00
   1.073000E-04   2.000000E-07   1.073000E+02   2.000000E-01   1.000000E+00
   1.226000E-04   2.000000E-07   1.226000E+02   2.000000E-01   1.000000E+00
   1.448000E-04   3.000000E-07   1.448000E+02   3.000000E-01   1.000000E+00
   1.518000E-04   3.000000E-07   1.518000E+02   3.000000E-01   1.000000E+00
   1.636000E-04   3.000000E-07   1.636000E+02   3.000000E-01   1.000000E+00
   1.656000E-04   3.000000E-07   1.656000E+02   3.000000E-01   1.000000E+00
   1.907000E-04   4.000000E-07   1.907000E+02   4.000000E-01   1.000000E+00
   2.096000E-04   4.000000E-07   2.096000E+02   4.000000E-01   1.000000E+00
   2.414000E-04   5.000000E-07   2.414000E+02   5.000000E-01   1.000000E+00
   2.562000E-04   5.000000E-07   2.562000E+02   5.000000E-01   1.000000E+00
   2.634000E-04   5.000000E-07   2.634000E+02   5.000000E-01   1.000000E+00
   2.750000E-04   5.000000E-07   2.750000E+02   5.000000E-01   1.000000E+00
   2.945000E-04   6.000000E-07   2.945000E+02   6.000000E-01   1.000000E+00
   3.305000E-04   7.000000E-07   3.305000E+02   7.000000E-01   1.000000E+00
   3.325000E-04   7.000000E-07   3.325000E+02   7.000000E-01   1.000000E+00
   3.570000E-04   7.000000E-07   3.570000E+02   7.000000E-01   1.000000E+00
   3.730000E-04   7.000000E-07   3.730000E+02   7.000000E-01   1.000000E+00
   3.770000E-04   8.000000E-07   3.770000E+02   8.000000E-01   1.000000E+00
   3.840000E-04   8.000000E-07   3.840000E+02   8.000000E-01   1.000000E+00
   4.030000E-04   8.000000E-07   4.030000E+02   8.000000E-01   1.000000E+00
   4.420000E-04   9.000000E-07   4.420000E+02   9.000000E-01   1.000000E+00
   4.530000E-04   9.000000E-07   4.530000E+02   9.000000E-01   1.000000E+00
   4.790000E-04   1.000000E-06   4.790000E+02   1.000000E+00   1.000000E+00
   4.920000E-04   1.000000E-06   4.920000E+02   1.000000E+00   1.000000E+00
   4.960000E-04   1.000000E-06   4.960000E+02   1.000000E+00   1.000000E+00
   5.380000E-04   1.100000E-06   5.380000E+02   1.100000E+00   1.000000E+00
   5.510000E-04   1.100000E-06   5.510000E+02   1.100000E+00   1.000000E+00
   5.650000E-04   1.100000E-06   5.650000E+02   1.100000E+00   1.000000E+00
   5.830000E-04   1.200000E-06   5.830000E+02   1.200000E+00   1.000000E+00
   5.900000E-04   1.200000E-06   5.900000E+02   1.200000E+00   1.000000E+00
   6.060000E-04   1.200000E-06   6.060000E+02   1.200000E+00   1.000000E+00
   6.210000E-04   1.200000E-06   6.210000E+02   1.200000E+00   1.000000E+00
   6.280000E-04   1.300000E-06   6.280000E+02   1.300000E+00   1.000000E+00
   6.320000E-04   1.300000E-06   6.320000E+02   1.300000E+00   1.000000E+00
   6.440000E-04   1.300000E-06   6.440000E+02   1.300000E+00   1.000000E+00
   6.640000E-04   1.400000E-06   6.640000E+02   1.400000E+00   1.000000E+00
   6.910000E-04   1.400000E-06   6.910000E+02   1.400000E+00   1.000000E+00
   7.020000E-04   1.500000E-06   7.020000E+02   1.500000E+00   1.000000E+00
   7.060000E-04   1.500000E-06   7.060000E+02   1.500000E+00   1.000000E+00
   7.210000E-04   1.500000E-06   7.210000E+02   1.500000E+00   1.000000E+00
   7.430000E-04   1.600000E-06   7.430000E+02   1.600000E+00   1.000000E+00
   7.660000E-04   1.600000E-06   7.660000E+02   1.600000E+00   1.000000E+00
   7.810000E-04   1.700000E-06   7.810000E+02   1.700000E+00   1.000000E+00
   7.910000E-04   1.800000E-06   7.910000E+02   1.800000E+00   1.000000E+00
   8.030000E-04   1.800000E-06   8.030000E+02   1.800000E+00   1.000000E+00
   8.190000E-04   1.800000E-06   8.190000E+02   1.800000E+00   1.000000E+00
   8.250000E-04   1.900000E-06   8.250000E+02   1.900000E+00   1.000000E+00
   8.310000E-04   1.900000E-06   8.310000E+02   1.900000E+00   1.000000E+00
   8.710000E-04   2.000000E-06   8.710000E+02   2.000000E+00   1.000000E+00
   8.860000E-04   2.100000E-06   8.860000E+02   2.100000E+00   1.000000E+00
   9.400000E-04   2.300000E-06   9.400000E+02   2.300000E+00   1.000000E+00
# reference:
#   author: J.S.Desjardins,J.L.Rosen,W.W.Havens Jr,J.Rainwater
#   title: Slow Neutron Resonance Spectroscopy. II. Ag, Au, Ta
#   journal: Jour: Physical Review, Vol.120, p.2214 (1960)
