# header: 
#   title: Au197(n,res) resonance parameter
#   source: EXFOR
#   user: Arjan Koning
#   date: 2025-08-01
#   format: YANDF-0.2
# exfor: 
#   author: Desjardins
#   year: 1960
#   subentry: 119480095
#   X4 reaction: 79-AU-197(N,EL),,WID/RED,,2G
#   X4 source: IAEA-NDS C5 file, database version 2023-08-08
#   X4 link: https://nds.iaea.org/EXFOR/119480095
# target: 
#   Z: 79
#   A: 197
#   nuclide: Au197
# reaction: 
#   type: (n,res)
#   ENDF_MF: 402
#   ENDF_MT: 151
#   quantity: 
#     type: resonance parameter
#   datablock: 
#     columns: 5
#     entries: 50
##       E             dE             par           dpar       Normalization
##     [eV]           [eV]            []             []             []
   4.670000E-05   8.000000E-08   1.600000E-05   3.000000E-06   1.000000E+00
   5.820000E-05   1.000000E-07   6.200000E-04   9.000000E-05   1.000000E+00
   6.030000E-05   1.000000E-07   1.220000E-02   1.900000E-03   1.000000E+00
   7.870000E-05   2.000000E-07   1.470000E-03   1.100000E-04   1.000000E+00
   1.073000E-04   2.000000E-07   9.000000E-04   5.000000E-05   1.000000E+00
   1.226000E-04   2.000000E-07   7.200000E-05   9.000000E-06   1.000000E+00
   1.448000E-04   3.000000E-07   5.400000E-04   5.000000E-05   1.000000E+00
   1.518000E-04   3.000000E-07   2.360000E-03   2.400000E-04   1.000000E+00
   1.636000E-04   3.000000E-07   3.120000E-03   7.800000E-04   1.000000E+00
   1.656000E-04   3.000000E-07   9.300000E-04   2.300000E-04   1.000000E+00
   1.907000E-04   4.000000E-07   1.950000E-03   2.900000E-04   1.000000E+00
   2.096000E-04   4.000000E-07   5.000000E-05   5.000000E-06   1.000000E+00
   2.414000E-04   5.000000E-07   5.500000E-03   4.000000E-04   1.000000E+00
   2.562000E-04   5.000000E-07   3.700000E-05   6.000000E-06   1.000000E+00
   2.634000E-04   5.000000E-07   6.950000E-03   3.700000E-04   1.000000E+00
   2.750000E-04   5.000000E-07   3.000000E-04   6.000000E-05   1.000000E+00
   2.945000E-04   6.000000E-07   2.330000E-02   3.500000E-03   1.000000E+00
   3.305000E-04   7.000000E-07   1.100000E-02   5.500000E-03   1.000000E+00
   3.325000E-04   7.000000E-07   3.300000E-03   1.600000E-03   1.000000E+00
   3.570000E-04   7.000000E-07   2.700000E-03   1.600000E-04   1.000000E+00
   3.730000E-04   7.000000E-07   5.950000E-03   7.800000E-04   1.000000E+00
   3.770000E-04   8.000000E-07   6.200000E-04   3.100000E-04   1.000000E+00
   3.840000E-04   8.000000E-07   4.600000E-03   4.600000E-04   1.000000E+00
   4.030000E-04   8.000000E-07   1.300000E-03   2.000000E-04   1.000000E+00
   4.420000E-04   9.000000E-07   1.090000E-02   1.400000E-03   1.000000E+00
   4.530000E-04   9.000000E-07   4.230000E-03   5.600000E-04   1.000000E+00
   4.790000E-04   1.000000E-06   1.720000E-02   1.800000E-03   1.000000E+00
   4.920000E-04   1.000000E-06   2.030000E-03   4.500000E-04   1.000000E+00
   4.960000E-04   1.000000E-06   6.700000E-04   1.800000E-04   1.000000E+00
   5.380000E-04   1.100000E-06   1.680000E-03   2.200000E-04   1.000000E+00
   5.510000E-04   1.100000E-06   1.530000E-03   1.700000E-04   1.000000E+00
   5.650000E-04   1.100000E-06   1.390000E-04   1.700000E-05   1.000000E+00
   5.830000E-04   1.200000E-06   1.530000E-02   2.100000E-03   1.000000E+00
   5.900000E-04   1.200000E-06   1.230000E-03   6.200000E-04   1.000000E+00
   6.060000E-04   1.200000E-06   1.010000E-02   8.000000E-04   1.000000E+00
   6.210000E-04   1.200000E-06   3.320000E-03   3.200000E-04   1.000000E+00
   6.280000E-04   1.300000E-06   2.400000E-03   8.000000E-04   1.000000E+00
   6.320000E-04   1.300000E-06   1.390000E-03   6.000000E-04   1.000000E+00
   6.440000E-04   1.300000E-06   1.930000E-02   2.400000E-03   1.000000E+00
   6.640000E-04   1.400000E-06   2.300000E-04   4.000000E-05   1.000000E+00
   6.910000E-04   1.400000E-06   3.800000E-04   1.100000E-04   1.000000E+00
   7.210000E-04   1.500000E-06   4.000000E-03   4.000000E-04   1.000000E+00
   7.430000E-04   1.600000E-06   4.000000E-04   1.100000E-04   1.000000E+00
   7.660000E-04   1.600000E-06   1.160000E-02   1.400000E-03   1.000000E+00
   7.810000E-04   1.700000E-06   5.300000E-03   1.400000E-03   1.000000E+00
   7.910000E-04   1.800000E-06   4.400000E-03   9.000000E-04   1.000000E+00
   8.030000E-04   1.800000E-06   7.550000E-03   1.520000E-03   1.000000E+00
   8.710000E-04   2.000000E-06   5.400000E-04   1.400000E-04   1.000000E+00
   8.860000E-04   2.100000E-06   2.180000E-03   3.400000E-04   1.000000E+00
   9.400000E-04   2.300000E-06   1.760000E-02   2.900000E-03   1.000000E+00
# reference:
#   author: J.S.Desjardins,J.L.Rosen,W.W.Havens Jr,J.Rainwater
#   title: Slow Neutron Resonance Spectroscopy. II. Ag, Au, Ta
#   journal: Jour: Physical Review, Vol.120, p.2214 (1960)
