# header: 
#   title: U238(n,res) resonance parameter
#   source: EXFOR
#   user: Arjan Koning
#   date: 2025-12-18
#   format: YANDF-0.4
# exfor: 
#   author: Glass
#   year: 1968
#   subentry: 12471002
#   X4 reaction: 92-U-238(N,G),,WID
#   X4 source: IAEA-NDS C5 file, database version 2023-08-08
#   X4 link: https://nds.iaea.org/EXFOR/12471002
# target: 
#   Z: 92
#   A: 238
#   nuclide: U238
# reaction: 
#   type: (n,res)
#   ENDF_MF: 402
#   ENDF_MT: 151
#   quantity: 
#     type: resonance parameter
#   datablock: 
#     columns: 5
#     entries: 64
##       E             dE             par           dpar       Normalization
##     [eV]           [eV]            []             []             []
   3.670000E-05   0.000000E+00   2.090000E-02   4.661500E-03   1.000000E+00
   6.630000E-05   0.000000E+00   1.735000E-02   3.400000E-03   1.000000E+00
   1.028000E-04   0.000000E+00   2.490000E-02   4.438500E-03   1.000000E+00
   1.169000E-04   0.000000E+00   2.330000E-02   4.118300E-03   1.000000E+00
   1.655000E-04   0.000000E+00   1.620000E-02   1.288255E-02   1.000000E+00
   1.903000E-04   0.000000E+00   1.850000E-02   5.688600E-03   1.000000E+00
   2.086000E-04   0.000000E+00   2.380000E-02   3.981200E-03   1.000000E+00
   2.374000E-04   0.000000E+00   3.140000E-02   4.949700E-03   1.000000E+00
   2.737000E-04   0.000000E+00   2.610000E-02   3.623500E-03   1.000000E+00
   2.911000E-04   0.000000E+00   3.140000E-02   9.596400E-03   1.000000E+00
   3.479000E-04   0.000000E+00   1.790000E-02   1.860100E-03   1.000000E+00
   4.102000E-04   0.000000E+00   1.440000E-02   1.910500E-03   1.000000E+00
   5.186000E-04   0.000000E+00   2.240000E-02   2.267200E-03   1.000000E+00
   5.355000E-04   0.000000E+00   2.490000E-02   2.662700E-03   1.000000E+00
   5.802000E-04   0.000000E+00   2.440000E-02   4.494400E-03   1.000000E+00
   5.952000E-04   0.000000E+00   2.080000E-02   2.061600E-03   1.000000E+00
   6.199000E-04   0.000000E+00   1.980000E-02   2.701900E-03   1.000000E+00
   6.612000E-04   0.000000E+00   1.880000E-02   1.860100E-03   1.000000E+00
   6.932000E-04   0.000000E+00   1.650000E-02   1.702900E-03   1.000000E+00
   7.085000E-04   0.000000E+00   1.340000E-02   3.138500E-03   1.000000E+00
   7.650999E-04   0.000000E+00   1.170000E-02   8.200000E-03   1.000000E+00
   8.216000E-04   0.000000E+00   2.000000E-02   2.865310E-03   1.000000E+00
   8.510000E-04   0.000000E+00   2.010000E-02   2.126000E-03   1.000000E+00
   8.562000E-04   0.000000E+00   2.310000E-02   2.121320E-03   1.000000E+00
   9.051000E-04   0.000000E+00   1.840000E-02   2.220360E-03   1.000000E+00
   9.252000E-04   0.000000E+00   4.100000E-02   3.354102E-02   1.000000E+00
   9.369000E-04   0.000000E+00   2.090000E-02   2.061600E-03   1.000000E+00
   9.584000E-04   0.000000E+00   1.230000E-02   1.746400E-03   1.000000E+00
   9.918000E-04   0.000000E+00   1.690000E-02   1.581100E-03   1.000000E+00
   1.023000E-03   0.000000E+00   1.250000E-02   7.280110E-03   1.000000E+00
   1.054000E-03   0.000000E+00   1.610000E-02   1.640100E-03   1.000000E+00
   1.098000E-03   0.000000E+00   2.020000E-02   7.749200E-03   1.000000E+00
   1.109000E-03   0.000000E+00   1.690000E-02   1.910500E-03   1.000000E+00
   1.140000E-03   0.000000E+00   1.520000E-02   1.788900E-03   1.000000E+00
   1.168000E-03   0.000000E+00   1.590000E-02   1.562050E-03   1.000000E+00
   1.178000E-03   0.000000E+00   1.770000E-02   1.702900E-03   1.000000E+00
   1.195000E-03   0.000000E+00   1.900000E-02   1.843900E-03   1.000000E+00
   1.211000E-03   0.000000E+00   1.400000E-02   8.514700E-03   1.000000E+00
   1.245000E-03   0.000000E+00   2.160000E-02   3.700000E-03   1.000000E+00
   1.267000E-03   0.000000E+00   2.830000E-02   6.753500E-03   1.000000E+00
   1.273000E-03   0.000000E+00   3.300000E-02   7.964900E-03   1.000000E+00
   1.393000E-03   0.000000E+00   2.000000E-02   2.863600E-03   1.000000E+00
   1.405000E-03   0.000000E+00   2.080000E-02   2.302200E-03   1.000000E+00
   1.428000E-03   0.000000E+00   2.230000E-02   3.605600E-03   1.000000E+00
   1.444000E-03   0.000000E+00   1.520000E-02   2.996700E-03   1.000000E+00
   1.474000E-03   0.000000E+00   1.880000E-02   2.163300E-03   1.000000E+00
   1.523000E-03   0.000000E+00   1.640000E-02   1.749300E-03   1.000000E+00
   1.598000E-03   0.000000E+00   1.760000E-02   2.012500E-03   1.000000E+00
   1.623000E-03   0.000000E+00   1.350000E-02   2.154100E-03   1.000000E+00
   1.638000E-03   0.000000E+00   1.710000E-02   2.506000E-03   1.000000E+00
   1.662000E-03   0.000000E+00   1.550000E-02   1.749300E-03   1.000000E+00
   1.688000E-03   0.000000E+00   1.740000E-02   2.549510E-03   1.000000E+00
   1.709000E-03   0.000000E+00   2.340000E-02   3.106400E-03   1.000000E+00
   1.723000E-03   0.000000E+00   2.060000E-02   6.462200E-03   1.000000E+00
   1.756000E-03   0.000000E+00   1.940000E-02   2.817800E-03   1.000000E+00
   1.782000E-03   0.000000E+00   3.120000E-02   2.780300E-03   1.000000E+00
   1.808000E-03   0.000000E+00   1.360000E-02   4.301200E-03   1.000000E+00
   1.846000E-03   0.000000E+00   1.180000E-02   4.464300E-03   1.000000E+00
   1.902000E-03   0.000000E+00   1.210000E-02   4.220190E-03   1.000000E+00
   1.917100E-03   0.000000E+00   1.470000E-02   4.176100E-03   1.000000E+00
   1.968700E-03   0.000000E+00   2.100000E-02   5.119600E-03   1.000000E+00
   1.974700E-03   0.000000E+00   1.400000E-02   6.040700E-03   1.000000E+00
   2.023600E-03   0.000000E+00   1.800000E-02   4.100000E-03   1.000000E+00
   2.031100E-03   0.000000E+00   1.200000E-02   5.063600E-03   1.000000E+00
# reference:
#   author: N.W.GLASS,A.D.SCHELBERG,L.D.TATRO,J.H.WARREN
#   title: U238 NEUTRON CAPTURE RESULTS FROM BOMB SOURCE NEUTRONS.
#   journal: Conf: Nuclear Cross-Sections Techn. Conf., Washington 1968, Vol.1, p.573
