# header: 
#   title: Nb93(n,xn) emission spectrum at  1.230000E+01 MeV
#   source: EXFOR
#   user: Arjan Koning
#   date: 2025-12-18
#   format: YANDF-0.4
# exfor: 
#   author: Schmidt
#   year: 1987
#   subentry: 32001031
#   X4 reaction: 41-NB-93(N,X)0-NN-1,,DE
#   X4 source: IAEA-NDS C5 file, database version 2023-08-08
#   X4 link: https://nds.iaea.org/EXFOR/32001031
# target: 
#   Z: 41
#   A: 93
#   nuclide: Nb93
# reaction: 
#   type: (n,xn)
#   ENDF_MF: 5
#   ENDF_MT: 201
#   E-incident [MeV]:  1.230000E+01
#   quantity: 
#     type: emission spectrum
#   datablock: 
#     columns: 5
#     entries: 27
##     E-out         dE-out           xs             dxs       Normalization
##     [MeV]          [MeV]       [mb/MeV.sr]    [mb/MeV.sr]        []
   5.500000E+00   0.000000E+00   7.180000E-05   5.600000E-06   1.000000E+00
   5.750000E+00   0.000000E+00   6.350000E-05   5.500000E-06   1.000000E+00
   6.000000E+00   0.000000E+00   5.640000E-05   5.800000E-06   1.000000E+00
   6.250000E+00   0.000000E+00   4.820000E-05   6.900000E-06   1.000000E+00
   6.500000E+00   0.000000E+00   4.570000E-05   6.700000E-06   1.000000E+00
   6.750000E+00   0.000000E+00   4.370000E-05   9.900000E-06   1.000000E+00
   7.000000E+00   0.000000E+00   4.020000E-05   1.200000E-05   1.000000E+00
   7.250000E+00   0.000000E+00   3.650000E-05   9.800000E-06   1.000000E+00
   7.500000E+00   0.000000E+00   3.230000E-05   5.500000E-06   1.000000E+00
   7.750000E+00   0.000000E+00   2.930000E-05   4.600000E-06   1.000000E+00
   8.000000E+00   0.000000E+00   2.600000E-05   5.000000E-06   1.000000E+00
   8.250000E+00   0.000000E+00   2.600000E-05   4.900000E-06   1.000000E+00
   8.500000E+00   0.000000E+00   2.550000E-05   4.600000E-06   1.000000E+00
   8.750000E+00   0.000000E+00   2.640000E-05   4.600000E-06   1.000000E+00
   9.000000E+00   0.000000E+00   2.780000E-05   4.200000E-06   1.000000E+00
   9.250000E+00   0.000000E+00   2.910000E-05   3.900000E-06   1.000000E+00
   9.500000E+00   0.000000E+00   2.960000E-05   3.700000E-06   1.000000E+00
   9.750000E+00   0.000000E+00   3.000000E-05   3.600000E-06   1.000000E+00
   1.000000E+01   0.000000E+00   2.940000E-05   3.600000E-06   1.000000E+00
   1.025000E+01   0.000000E+00   2.790000E-05   3.800000E-06   1.000000E+00
   1.050000E+01   0.000000E+00   2.610000E-05   4.100000E-06   1.000000E+00
   1.075000E+01   0.000000E+00   2.600000E-05   4.700000E-06   1.000000E+00
   1.100000E+01   0.000000E+00   2.580000E-05   5.700000E-06   1.000000E+00
   1.125000E+01   0.000000E+00   2.480000E-05   8.399999E-06   1.000000E+00
   1.150000E+01   0.000000E+00   2.510000E-05   1.400000E-05   1.000000E+00
   1.175000E+01   0.000000E+00   2.620000E-05   1.800000E-05   1.000000E+00
   1.200000E+01   0.000000E+00   2.690000E-05   1.300000E-05   1.000000E+00
# reference:
#   author: D.Schmidt, D.Seeliger, G.N.Lovchikova, A.M.Trufanov
#   title: Measurement and status of neutron scattering on 6Li and 7Li between 6 and 14 MeV
#   journal: Jour: Nuclear Science and Engineering, Vol.96, p.159 (1987)
