# header: 
#   title: Th232(n,xn) emission spectrum at  4.250000E+00 MeV
#   source: EXFOR
#   user: Arjan Koning
#   date: 2025-10-25
#   format: YANDF-0.4
# exfor: 
#   author: Baba
#   year: 1990
#   subentry: 22158003
#   X4 reaction: 90-TH-232(N,X)0-NN-1,,DE
#   X4 source: IAEA-NDS C5 file, database version 2023-08-08
#   X4 link: https://nds.iaea.org/EXFOR/22158003
# target: 
#   Z: 90
#   A: 232
#   nuclide: Th232
# reaction: 
#   type: (n,xn)
#   ENDF_MF: 5
#   ENDF_MT: 201
#   E-incident [MeV]:  4.250000E+00
#   quantity: 
#     type: emission spectrum
#   datablock: 
#     columns: 5
#     entries: 82
##     E-out         dE-out           xs             dxs       Normalization
##     [MeV]          [MeV]       [mb/MeV.sr]    [mb/MeV.sr]        []
   3.500000E-01   5.000000E-02   1.458400E-03   2.422300E-04   1.000000E+00
   4.500000E-01   5.000000E-02   2.147700E-03   1.421200E-04   1.000000E+00
   5.500000E-01   5.000000E-02   2.324700E-03   1.332700E-04   1.000000E+00
   6.500000E-01   5.000000E-02   2.254900E-03   1.249300E-04   1.000000E+00
   7.500000E-01   5.000000E-02   1.998900E-03   1.098300E-04   1.000000E+00
   8.500000E-01   5.000000E-02   1.880900E-03   1.029400E-04   1.000000E+00
   9.500000E-01   5.000000E-02   1.643800E-03   8.994600E-05   1.000000E+00
   1.050000E+00   5.000000E-02   1.376100E-03   7.572600E-05   1.000000E+00
   1.150000E+00   5.000000E-02   1.236500E-03   6.824900E-05   1.000000E+00
   1.250000E+00   5.000000E-02   1.065400E-03   5.906800E-05   1.000000E+00
   1.350000E+00   5.000000E-02   9.273600E-04   5.173600E-05   1.000000E+00
   1.450000E+00   5.000000E-02   8.459200E-04   4.735300E-05   1.000000E+00
   1.550000E+00   5.000000E-02   7.307400E-04   4.124000E-05   1.000000E+00
   1.650000E+00   5.000000E-02   6.625900E-04   3.769700E-05   1.000000E+00
   1.750000E+00   5.000000E-02   5.452000E-04   3.170800E-05   1.000000E+00
   1.850000E+00   5.000000E-02   5.083300E-04   2.979600E-05   1.000000E+00
   1.950000E+00   5.000000E-02   4.495500E-04   2.682600E-05   1.000000E+00
   2.050000E+00   5.000000E-02   3.844500E-04   2.337700E-05   1.000000E+00
   2.150000E+00   5.000000E-02   3.691100E-04   2.229800E-05   1.000000E+00
   2.250000E+00   5.000000E-02   3.192200E-04   1.955500E-05   1.000000E+00
   2.350000E+00   5.000000E-02   2.848500E-04   1.781300E-05   1.000000E+00
   2.450000E+00   5.000000E-02   2.249000E-04   1.500000E-05   1.000000E+00
   2.550000E+00   5.000000E-02   1.960700E-04   1.383700E-05   1.000000E+00
   2.650000E+00   5.000000E-02   1.572000E-04   1.245200E-05   1.000000E+00
   2.750000E+00   5.000000E-02   1.239600E-04   1.111000E-05   1.000000E+00
   2.850000E+00   5.000000E-02   1.123700E-04   1.050800E-05   1.000000E+00
   2.950000E+00   5.000000E-02   1.460500E-04   1.220200E-05   1.000000E+00
   3.050000E+00   5.000000E-02   1.353400E-04   1.243000E-05   1.000000E+00
   3.150000E+00   5.000000E-02   1.895700E-04   1.473400E-05   1.000000E+00
   3.250000E+00   5.000000E-02   2.224800E-04   1.620700E-05   1.000000E+00
   3.350000E+00   5.000000E-02   2.531500E-04   1.739400E-05   1.000000E+00
   3.450000E+00   5.000000E-02   2.739000E-04   1.836300E-05   1.000000E+00
   3.550000E+00   5.000000E-02   2.197100E-04   1.579000E-05   1.000000E+00
   3.650000E+00   5.000000E-02   2.023300E-04   1.511500E-05   1.000000E+00
   3.750000E+00   5.000000E-02   2.589700E-04   1.834300E-05   1.000000E+00
   3.850000E+00   5.000000E-02   5.902500E-04   3.518900E-05   1.000000E+00
   3.950000E+00   5.000000E-02   1.612900E-03   8.903900E-05   1.000000E+00
   4.050000E+00   5.000000E-02   2.931000E-03   1.601900E-04   1.000000E+00
   4.150000E+00   5.000000E-02   3.487600E-03   1.908500E-04   1.000000E+00
   4.250000E+00   5.000000E-02   3.455300E-03   1.901200E-04   1.000000E+00
   4.350000E+00   5.000000E-02   2.675600E-03   1.493200E-04   1.000000E+00
   4.450000E+00   5.000000E-02   1.463300E-03   8.309300E-05   1.000000E+00
   4.550000E+00   5.000000E-02   7.250100E-04   4.167300E-05   1.000000E+00
   4.650000E+00   5.000000E-02   3.670400E-04   2.182500E-05   1.000000E+00
   4.750000E+00   5.000000E-02   2.098000E-04   1.292900E-05   1.000000E+00
   4.850000E+00   5.000000E-02   1.458900E-04   9.537700E-06   1.000000E+00
   4.950000E+00   5.000000E-02   1.120400E-04   7.913301E-06   1.000000E+00
   5.050000E+00   5.000000E-02   9.132900E-05   6.840900E-06   1.000000E+00
   5.150000E+00   5.000000E-02   7.542600E-05   6.056500E-06   1.000000E+00
   5.250000E+00   5.000000E-02   5.285900E-05   4.911700E-06   1.000000E+00
   5.350000E+00   5.000000E-02   4.418500E-05   4.508700E-06   1.000000E+00
   5.450000E+00   5.000000E-02   3.581400E-05   3.875700E-06   1.000000E+00
   5.550000E+00   5.000000E-02   2.621800E-05   3.405100E-06   1.000000E+00
   5.650000E+00   5.000000E-02   1.846700E-05   3.326300E-06   1.000000E+00
   5.750000E+00   5.000000E-02   1.450300E-05   2.544600E-06   1.000000E+00
   5.850000E+00   5.000000E-02   1.526500E-05   2.884600E-06   1.000000E+00
   5.950000E+00   5.000000E-02   1.300500E-05   2.825600E-06   1.000000E+00
   6.050000E+00   5.000000E-02   6.336400E-06   2.256000E-06   1.000000E+00
   6.150000E+00   5.000000E-02   1.128300E-05   2.695200E-06   1.000000E+00
   6.250000E+00   5.000000E-02   9.666400E-06   2.280800E-06   1.000000E+00
   6.350000E+00   5.000000E-02   9.711500E-06   2.672600E-06   1.000000E+00
   6.450000E+00   5.000000E-02   8.025000E-06   2.487100E-06   1.000000E+00
   6.550000E+00   5.000000E-02   7.959999E-06   2.685600E-06   1.000000E+00
   6.650000E+00   5.000000E-02   9.892899E-06   2.695500E-06   1.000000E+00
   6.750000E+00   5.000000E-02   8.228500E-06   2.616900E-06   1.000000E+00
   6.850000E+00   5.000000E-02   3.586900E-06   2.471000E-06   1.000000E+00
   6.950000E+00   5.000000E-02   2.740800E-06   2.313900E-06   1.000000E+00
   7.050000E+00   5.000000E-02   2.110900E-06   1.962100E-06   1.000000E+00
   7.150000E+00   5.000000E-02   2.464100E-06   2.435500E-06   1.000000E+00
   7.250000E+00   5.000000E-02   3.588700E-06   2.311200E-06   1.000000E+00
   7.350000E+00   5.000000E-02   4.919400E-06   2.554500E-06   1.000000E+00
   7.450000E+00   5.000000E-02   3.504500E-06   2.706100E-06   1.000000E+00
   7.550000E+00   5.000000E-02   3.517600E-06   2.320200E-06   1.000000E+00
   7.650000E+00   5.000000E-02   1.459900E-06   1.177700E-06   1.000000E+00
   7.750000E+00   5.000000E-02   4.239700E-06   2.250600E-06   1.000000E+00
   7.850000E+00   5.000000E-02   2.416200E-06   1.578000E-06   1.000000E+00
   7.950000E+00   5.000000E-02   3.101600E-06   2.582600E-06   1.000000E+00
   8.050000E+00   5.000050E-02   3.435000E-06   2.564100E-06   1.000000E+00
   8.150000E+00   5.000000E-02   8.775800E-07   1.264000E-06   1.000000E+00
   8.250000E+00   5.000000E-02   2.094300E-06   3.453800E-06   1.000000E+00
   8.350000E+00   5.000000E-02   0.000000E+00   0.000000E+00   1.000000E+00
   8.450000E+00   5.000000E-02   0.000000E+00   0.000000E+00   1.000000E+00
# reference:
#   author: M.Baba, H.Wakabayashi, N.Ito, K.Maeda, N.Hirakawa
#   title: Measurements of prompt fission neutron spectra and  double-differential neutron inelastic-scattering  cross sections for 238U and 232Th
#   journal: Jour: Jour. of Nuclear Science and Technology, Vol.27, p.601 (1990)
