# header: 
#   title: Th232(n,xn) emission spectrum at  6.100000E+00 MeV
#   source: EXFOR
#   user: Arjan Koning
#   date: 2025-10-25
#   format: YANDF-0.4
# exfor: 
#   author: Baba
#   year: 1990
#   subentry: 22158003
#   X4 reaction: 90-TH-232(N,X)0-NN-1,,DE
#   X4 source: IAEA-NDS C5 file, database version 2023-08-08
#   X4 link: https://nds.iaea.org/EXFOR/22158003
# target: 
#   Z: 90
#   A: 232
#   nuclide: Th232
# reaction: 
#   type: (n,xn)
#   ENDF_MF: 5
#   ENDF_MT: 201
#   E-incident [MeV]:  6.100000E+00
#   quantity: 
#     type: emission spectrum
#   datablock: 
#     columns: 5
#     entries: 81
##     E-out         dE-out           xs             dxs       Normalization
##     [MeV]          [MeV]       [mb/MeV.sr]    [mb/MeV.sr]        []
   3.500000E-01   5.000000E-02   2.009500E-03   2.545200E-04   1.000000E+00
   4.500000E-01   5.000000E-02   2.126400E-03   1.477000E-04   1.000000E+00
   5.500000E-01   5.000000E-02   2.162700E-03   1.260200E-04   1.000000E+00
   6.500000E-01   5.000000E-02   2.114700E-03   1.170700E-04   1.000000E+00
   7.500000E-01   5.000000E-02   1.989800E-03   1.080700E-04   1.000000E+00
   8.500000E-01   5.000000E-02   1.883300E-03   1.016800E-04   1.000000E+00
   9.500000E-01   5.000000E-02   1.664800E-03   8.965500E-05   1.000000E+00
   1.050000E+00   5.000000E-02   1.464500E-03   7.892001E-05   1.000000E+00
   1.150000E+00   5.000000E-02   1.281100E-03   6.911700E-05   1.000000E+00
   1.250000E+00   5.000000E-02   1.148100E-03   6.202100E-05   1.000000E+00
   1.350000E+00   5.000000E-02   1.007700E-03   5.446900E-05   1.000000E+00
   1.450000E+00   5.000000E-02   9.083400E-04   4.920300E-05   1.000000E+00
   1.550000E+00   5.000000E-02   7.850699E-04   4.276100E-05   1.000000E+00
   1.650000E+00   5.000000E-02   7.095700E-04   3.891400E-05   1.000000E+00
   1.750000E+00   5.000000E-02   5.977100E-04   3.309400E-05   1.000000E+00
   1.850000E+00   5.000000E-02   5.443600E-04   3.019600E-05   1.000000E+00
   1.950000E+00   5.000000E-02   4.939800E-04   2.753700E-05   1.000000E+00
   2.050000E+00   5.000000E-02   4.260700E-04   2.415700E-05   1.000000E+00
   2.150000E+00   5.000000E-02   3.894800E-04   2.235500E-05   1.000000E+00
   2.250000E+00   5.000000E-02   3.421400E-04   1.996700E-05   1.000000E+00
   2.350000E+00   5.000000E-02   3.060800E-04   1.811200E-05   1.000000E+00
   2.450000E+00   5.000000E-02   2.649200E-04   1.613700E-05   1.000000E+00
   2.550000E+00   5.000000E-02   2.456600E-04   1.529600E-05   1.000000E+00
   2.650000E+00   5.000000E-02   2.199200E-04   1.411200E-05   1.000000E+00
   2.750000E+00   5.000000E-02   1.825300E-04   1.250100E-05   1.000000E+00
   2.850000E+00   5.000000E-02   1.815700E-04   1.224700E-05   1.000000E+00
   2.950000E+00   5.000000E-02   1.751000E-04   1.179600E-05   1.000000E+00
   3.050000E+00   5.000000E-02   1.606200E-04   1.056100E-05   1.000000E+00
   3.150000E+00   5.000000E-02   1.601700E-04   1.065400E-05   1.000000E+00
   3.250000E+00   5.000000E-02   1.536500E-04   1.053300E-05   1.000000E+00
   3.350000E+00   5.000000E-02   1.504700E-04   1.036900E-05   1.000000E+00
   3.450000E+00   5.000000E-02   1.422500E-04   9.721601E-06   1.000000E+00
   3.550000E+00   5.000000E-02   1.322700E-04   8.996800E-06   1.000000E+00
   3.650000E+00   5.000000E-02   1.151700E-04   8.047600E-06   1.000000E+00
   3.750000E+00   5.000000E-02   1.105700E-04   7.665501E-06   1.000000E+00
   3.850000E+00   5.000000E-02   1.145300E-04   7.799300E-06   1.000000E+00
   3.950000E+00   5.000000E-02   1.142700E-04   7.856800E-06   1.000000E+00
   4.050000E+00   5.000000E-02   1.257700E-04   8.281801E-06   1.000000E+00
   4.150000E+00   5.000000E-02   1.165600E-04   8.044200E-06   1.000000E+00
   4.250000E+00   5.000000E-02   9.312500E-05   7.151900E-06   1.000000E+00
   4.350000E+00   5.000000E-02   9.145300E-05   7.104400E-06   1.000000E+00
   4.450000E+00   5.000000E-02   8.552300E-05   7.358100E-06   1.000000E+00
   4.550000E+00   5.000000E-02   8.188300E-05   7.107900E-06   1.000000E+00
   4.650000E+00   5.000000E-02   7.685400E-05   7.002900E-06   1.000000E+00
   4.750000E+00   5.000000E-02   9.999800E-05   8.077800E-06   1.000000E+00
   4.850000E+00   5.000000E-02   1.300900E-04   9.425600E-06   1.000000E+00
   4.950000E+00   5.000000E-02   1.482500E-04   1.032800E-05   1.000000E+00
   5.050000E+00   5.000000E-02   1.590700E-04   1.076300E-05   1.000000E+00
   5.150000E+00   5.000000E-02   2.004700E-04   1.282000E-05   1.000000E+00
   5.250000E+00   5.000000E-02   2.039900E-04   1.323300E-05   1.000000E+00
   5.350000E+00   5.000000E-02   2.009000E-04   1.330300E-05   1.000000E+00
   5.450000E+00   5.000000E-02   1.945700E-04   1.320900E-05   1.000000E+00
   5.550000E+00   5.000000E-02   2.638700E-04   1.665900E-05   1.000000E+00
   5.650000E+00   5.000000E-02   5.286500E-04   2.956100E-05   1.000000E+00
   5.750000E+00   5.000000E-02   1.211500E-03   6.514600E-05   1.000000E+00
   5.850000E+00   5.000000E-02   2.557200E-03   1.366200E-04   1.000000E+00
   5.950000E+00   5.000000E-02   3.365700E-03   1.800100E-04   1.000000E+00
   6.050000E+00   5.000000E-02   2.341300E-03   1.269700E-04   1.000000E+00
   6.150000E+00   5.000000E-02   9.568899E-04   5.309900E-05   1.000000E+00
   6.250000E+00   5.000000E-02   3.557500E-04   2.005600E-05   1.000000E+00
   6.350000E+00   5.000000E-02   2.060200E-04   1.213500E-05   1.000000E+00
   6.450000E+00   5.000000E-02   1.382800E-04   8.649100E-06   1.000000E+00
   6.550000E+00   5.000000E-02   1.124500E-04   7.220700E-06   1.000000E+00
   6.650000E+00   5.000000E-02   8.976300E-05   6.094600E-06   1.000000E+00
   6.750000E+00   5.000000E-02   7.596800E-05   5.514800E-06   1.000000E+00
   6.850000E+00   5.000000E-02   5.879800E-05   4.582800E-06   1.000000E+00
   6.950000E+00   5.000000E-02   4.319900E-05   4.030600E-06   1.000000E+00
   7.050000E+00   5.000000E-02   3.631400E-05   3.714700E-06   1.000000E+00
   7.150000E+00   5.000000E-02   3.009600E-05   3.312900E-06   1.000000E+00
   7.250000E+00   5.000000E-02   2.322300E-05   2.988600E-06   1.000000E+00
   7.350000E+00   5.000000E-02   1.863900E-05   3.031900E-06   1.000000E+00
   7.450000E+00   5.000000E-02   1.182100E-05   2.542900E-06   1.000000E+00
   7.550000E+00   5.000000E-02   1.356800E-05   2.539100E-06   1.000000E+00
   7.650000E+00   5.000000E-02   1.113500E-05   2.557800E-06   1.000000E+00
   7.750000E+00   5.000000E-02   8.221200E-06   2.435200E-06   1.000000E+00
   7.850000E+00   5.000000E-02   5.318400E-06   1.938700E-06   1.000000E+00
   7.950000E+00   5.000000E-02   9.730600E-06   2.304400E-06   1.000000E+00
   8.050000E+00   5.000050E-02   5.365500E-06   1.673000E-06   1.000000E+00
   8.150000E+00   5.000000E-02   5.655100E-06   2.105100E-06   1.000000E+00
   8.250000E+00   5.000000E-02   2.763300E-06   1.791800E-06   1.000000E+00
   8.350000E+00   5.000000E-02   0.000000E+00   0.000000E+00   1.000000E+00
# reference:
#   author: M.Baba, H.Wakabayashi, N.Ito, K.Maeda, N.Hirakawa
#   title: Measurements of prompt fission neutron spectra and  double-differential neutron inelastic-scattering  cross sections for 238U and 232Th
#   journal: Jour: Jour. of Nuclear Science and Technology, Vol.27, p.601 (1990)
