# header: 
#   title: Fe56(n,res) resonance parameter
#   source: EXFOR
#   user: Arjan Koning
#   date: 2025-08-01
#   format: YANDF-0.2
# exfor: 
#   author: Kaeppler
#   year: 1983
#   subentry: 218310021
#   X4 reaction: 26-FE-56(N,0),,EN
#   X4 source: IAEA-NDS C5 file, database version 2023-08-08
#   X4 link: https://nds.iaea.org/EXFOR/218310021
# target: 
#   Z: 26
#   A: 56
#   nuclide: Fe56
# reaction: 
#   type: (n,res)
#   ENDF_MF: 402
#   ENDF_MT: 151
#   quantity: 
#     type: resonance parameter
#   datablock: 
#     columns: 5
#     entries: 22
##       E             dE             par           dpar       Normalization
##     [eV]           [eV]            []             []             []
   2.280000E-02   2.052000E-03   2.280000E+04   2.052000E+03   1.000000E+00
   2.780000E-02   2.224000E-03   2.780000E+04   2.224000E+03   1.000000E+00
   3.420000E-02   2.462400E-03   3.420000E+04   2.462400E+03   1.000000E+00
   3.670000E-02   2.936000E-03   3.670000E+04   2.936000E+03   1.000000E+00
   3.840000E-02   2.764800E-03   3.840000E+04   2.764800E+03   1.000000E+00
   4.600000E-02   3.036000E-03   4.600000E+04   3.036000E+03   1.000000E+00
   5.210000E-02   3.907500E-03   5.210000E+04   3.907500E+03   1.000000E+00
   5.350000E-02   4.708000E-03   5.350000E+04   4.708000E+03   1.000000E+00
   5.920000E-02   3.966400E-03   5.920000E+04   3.966400E+03   1.000000E+00
   6.340000E-02   4.755000E-03   6.340000E+04   4.755000E+03   1.000000E+00
   7.290000E-02   6.852600E-03   7.290000E+04   6.852600E+03   1.000000E+00
   7.390000E-02   6.503200E-03   7.390000E+04   6.503200E+03   1.000000E+00
   7.700000E-02   1.162700E-02   7.700000E+04   1.162700E+04   1.000000E+00
   8.080000E-02   5.898400E-03   8.080000E+04   5.898400E+03   1.000000E+00
   8.350000E-02   1.402800E-02   8.350000E+04   1.402800E+04   1.000000E+00
   9.030000E-02   7.765801E-03   9.030000E+04   7.765801E+03   1.000000E+00
   9.260000E-02   5.463400E-03   9.260000E+04   5.463400E+03   1.000000E+00
   9.620000E-02   1.058200E-02   9.620000E+04   1.058200E+04   1.000000E+00
   9.650000E-02   1.061500E-02   9.650000E+04   1.061500E+04   1.000000E+00
   1.027000E-01   6.367400E-03   1.027000E+05   6.367400E+03   1.000000E+00
   1.058000E-01   6.982800E-03   1.058000E+05   6.982800E+03   1.000000E+00
   1.126000E-01   9.120600E-03   1.126000E+05   9.120601E+03   1.000000E+00
# reference:
#   author: F.KAEPPLER,K.WISSHAK,L.D.HONG
#   title: -NEUTRON CAPTURE RESONANCES IN FE-56 AND FE-58  IN THE ENERGY RANGE FROM 10 TO 100 KEV.
#   journal: Jour: Nuclear Science and Engineering, Vol.84, p.234 (1983)
