# header: 
#   title: Fe54(p,res) resonance parameter
#   source: EXFOR
#   user: Arjan Koning
#   date: 2025-12-18
#   format: YANDF-0.4
# exfor: 
#   author: Arai
#   year: 1979
#   subentry: E02050023
#   X4 reaction: 26-FE-54(P,EL),,WID
#   X4 source: IAEA-NDS C5 file, database version 2023-08-08
#   X4 link: https://nds.iaea.org/EXFOR/E02050023
# target: 
#   Z: 26
#   A: 54
#   nuclide: Fe54
# reaction: 
#   type: (p,res)
#   ENDF_MF: 402
#   ENDF_MT: 151
#   quantity: 
#     type: resonance parameter
#   datablock: 
#     columns: 5
#     entries: 61
##       E             dE             par           dpar       Normalization
##     [eV]           [eV]            []             []             []
   3.283400E+00   0.000000E+00   1.760000E+01   1.030000E+01   1.000000E+00
   3.287800E+00   0.000000E+00   1.449000E+03   1.500000E+02   1.000000E+00
   3.294600E+00   0.000000E+00   4.265000E+02   4.040000E+01   1.000000E+00
   3.369800E+00   0.000000E+00   9.710000E+01   5.000000E+00   1.000000E+00
   3.379400E+00   0.000000E+00   1.265000E+02   1.290000E+01   1.000000E+00
   3.383100E+00   0.000000E+00   1.350000E+03   2.200000E+02   1.000000E+00
   3.384500E+00   0.000000E+00   2.098000E+02   1.470000E+01   1.000000E+00
   3.391400E+00   0.000000E+00   4.174000E+02   2.270000E+01   1.000000E+00
   3.413400E+00   0.000000E+00   1.686000E+02   2.920000E+01   1.000000E+00
   3.418100E+00   0.000000E+00   8.124000E+02   3.600000E+01   1.000000E+00
   3.432400E+00   0.000000E+00   3.010000E+01   7.900000E+00   1.000000E+00
   3.441500E+00   0.000000E+00   1.004000E+02   6.600000E+00   1.000000E+00
   3.454100E+00   0.000000E+00   3.780000E+01   2.600000E+00   1.000000E+00
   3.464700E+00   0.000000E+00   4.310000E+01   4.300000E+00   1.000000E+00
   3.465600E+00   0.000000E+00   5.000000E+00   3.500000E+00   1.000000E+00
   3.471400E+00   0.000000E+00   1.390000E+04   7.600000E+02   1.000000E+00
   3.491000E+00   0.000000E+00   3.849000E+03   3.400000E+02   1.000000E+00
   3.501500E+00   0.000000E+00   2.644000E+02   1.780000E+01   1.000000E+00
   3.505000E+00   0.000000E+00   1.850000E+01   9.500000E+00   1.000000E+00
   3.564000E+00   0.000000E+00   1.700000E+01   1.040000E+01   1.000000E+00
   3.565100E+00   0.000000E+00   4.232000E+02   2.530000E+01   1.000000E+00
   3.567500E+00   0.000000E+00   6.240000E+01   1.180000E+01   1.000000E+00
   3.574200E+00   0.000000E+00   2.770000E+01   1.240000E+01   1.000000E+00
   3.580800E+00   0.000000E+00   9.870000E+01   9.600000E+00   1.000000E+00
   3.628100E+00   0.000000E+00   8.570000E+01   5.600000E+00   1.000000E+00
   3.643300E+00   0.000000E+00   1.405000E+02   1.040000E+01   1.000000E+00
   3.649800E+00   0.000000E+00   1.411000E+02   1.360000E+01   1.000000E+00
   3.659700E+00   0.000000E+00   1.272000E+02   7.400000E+00   1.000000E+00
   3.662100E+00   0.000000E+00   2.288000E+02   1.040000E+01   1.000000E+00
   3.667900E+00   0.000000E+00   3.500000E+01   1.500000E+01   1.000000E+00
   3.669400E+00   0.000000E+00   1.490000E+01   0.000000E+00   1.000000E+00
   3.679700E+00   0.000000E+00   4.053000E+03   4.500000E+02   1.000000E+00
   3.690100E+00   0.000000E+00   1.851000E+02   1.530000E+01   1.000000E+00
   3.721600E+00   0.000000E+00   1.920000E+02   1.360000E+01   1.000000E+00
   3.746800E+00   0.000000E+00   5.858000E+02   6.000000E+01   1.000000E+00
   3.747000E+00   0.000000E+00   3.963000E+02   4.050000E+01   1.000000E+00
   3.750400E+00   0.000000E+00   9.600000E+00   7.500000E+00   1.000000E+00
   3.753700E+00   0.000000E+00   2.000000E+01   1.000000E+01   1.000000E+00
   3.755100E+00   0.000000E+00   1.460000E+01   6.900000E+00   1.000000E+00
   3.775100E+00   0.000000E+00   6.449000E+02   3.140000E+01   1.000000E+00
   3.799900E+00   0.000000E+00   1.754000E+02   1.740000E+01   1.000000E+00
   3.804100E+00   0.000000E+00   4.836000E+02   7.100000E+00   1.000000E+00
   3.805500E+00   0.000000E+00   8.400000E+02   2.300000E+01   1.000000E+00
   3.816300E+00   0.000000E+00   6.258000E+02   4.100000E+01   1.000000E+00
   3.827600E+00   0.000000E+00   2.250000E+01   8.800000E+00   1.000000E+00
   3.837800E+00   0.000000E+00   2.000000E+01   1.000000E+01   1.000000E+00
   3.847400E+00   0.000000E+00   1.049000E+03   1.200000E+02   1.000000E+00
   3.883600E+00   0.000000E+00   3.779000E+02   3.830000E+01   1.000000E+00
   3.887700E+00   0.000000E+00   2.090000E+01   8.400000E+00   1.000000E+00
   3.890500E+00   0.000000E+00   1.135000E+02   1.500000E+01   1.000000E+00
   3.899500E+00   0.000000E+00   1.386000E+03   1.500000E+02   1.000000E+00
   3.902000E+00   0.000000E+00   4.251000E+02   5.790000E+01   1.000000E+00
   3.917100E+00   0.000000E+00   2.957000E+02   3.000000E+01   1.000000E+00
   3.939200E+00   0.000000E+00   2.500000E+01   3.800000E+00   1.000000E+00
   3.958100E+00   0.000000E+00   3.645000E+02   2.790000E+01   1.000000E+00
   3.966800E+00   0.000000E+00   2.037000E+02   2.000000E+01   1.000000E+00
   3.968500E+00   0.000000E+00   1.322000E+02   2.530000E+01   1.000000E+00
   3.987000E+00   0.000000E+00   2.057000E+04   2.000000E+03   1.000000E+00
   3.994700E+00   0.000000E+00   3.851000E+02   4.000000E+01   1.000000E+00
   4.008600E+00   0.000000E+00   1.804000E+03   2.000000E+02   1.000000E+00
   4.011600E+00   0.000000E+00   9.030000E+01   1.100000E+01   1.000000E+00
# reference:
#   author: E.Arai, T.Takahashi, J.Kato
#   title: High-resolution measurements of analogue states in 55Co
#   journal: Jour: Nuclear Physics, Section A, Vol.324, Issue.1, p.63 (1979)
