# header: 
#   title: W183(n,res) resonance parameter
#   source: EXFOR
#   user: Arjan Koning
#   date: 2025-12-18
#   format: YANDF-0.4
# exfor: 
#   author: Ohkubo
#   year: 1984
#   subentry: 22065003
#   X4 reaction: 74-W-183(N,EL),,WID/RED,,G
#   X4 source: IAEA-NDS C5 file, database version 2023-08-08
#   X4 link: https://nds.iaea.org/EXFOR/22065003
# target: 
#   Z: 74
#   A: 183
#   nuclide: W183
# reaction: 
#   type: (n,res)
#   ENDF_MF: 402
#   ENDF_MT: 151
#   quantity: 
#     type: resonance parameter
#   datablock: 
#     columns: 5
#     entries: 64
##       E             dE             par           dpar       Normalization
##     [eV]           [eV]            []             []             []
   7.630000E-06   1.000000E-08   4.500000E-04   2.000000E-05   1.000000E+00
   2.703000E-05   2.000000E-08   6.400000E-03   3.000000E-04   1.000000E+00
   4.066000E-05   1.000000E-08   2.300000E-04   2.000000E-05   1.000000E+00
   4.626000E-05   1.000000E-08   1.700000E-02   1.500000E-03   1.000000E+00
   4.780000E-05   1.000000E-08   4.300000E-03   5.000000E-04   1.000000E+00
   6.530000E-05   2.000000E-08   1.600000E-04   2.000000E-05   1.000000E+00
   1.010000E-04   3.000000E-08   8.000000E-03   1.000000E-03   1.000000E+00
   1.038400E-04   3.000000E-08   2.100000E-04   2.000000E-05   1.000000E+00
   1.379300E-04   4.000000E-08   2.300000E-04   2.000000E-05   1.000000E+00
   1.441600E-04   4.000000E-08   2.000000E-03   2.000000E-04   1.000000E+00
   1.543700E-04   5.000000E-08   6.900000E-03   7.000000E-04   1.000000E+00
   1.568500E-04   5.000000E-08   3.100000E-03   7.000000E-04   1.000000E+00
   1.737800E-04   5.000000E-08   3.100000E-03   3.000000E-04   1.000000E+00
   1.920300E-04   6.000000E-08   1.600000E-03   1.500000E-04   1.000000E+00
   2.031400E-04   6.000000E-08   6.000000E-05   1.000000E-05   1.000000E+00
   2.201000E-04   7.000000E-08   9.000000E-05   1.000000E-05   1.000000E+00
   2.276000E-04   7.000000E-08   4.000000E-05   1.000000E-05   1.000000E+00
   2.350500E-04   8.000000E-08   2.400000E-04   2.000000E-05   1.000000E+00
   2.401100E-04   8.000000E-08   5.000000E-04   5.000000E-05   1.000000E+00
   2.434400E-04   8.000000E-08   1.700000E-04   2.000000E-05   1.000000E+00
   2.585900E-04   8.000000E-08   2.800000E-03   3.000000E-04   1.000000E+00
   2.796100E-04   9.000000E-08   7.700000E-03   1.000000E-03   1.000000E+00
   2.882700E-04   1.000000E-07   2.200000E-04   2.000000E-05   1.000000E+00
   2.960900E-04   1.000000E-07   1.100000E-03   1.000000E-04   1.000000E+00
   3.217200E-04   1.100000E-07   3.300000E-03   3.000000E-04   1.000000E+00
   3.367800E-04   1.200000E-07   2.600000E-04   3.000000E-05   1.000000E+00
   3.473200E-04   1.200000E-07   5.900000E-03   6.000000E-04   1.000000E+00
   3.530000E-04   1.300000E-07   5.000000E-05   1.000000E-05   1.000000E+00
   3.603100E-04   1.300000E-07   1.500000E-03   1.500000E-04   1.000000E+00
   3.773900E-04   1.400000E-07   3.600000E-03   6.000000E-04   1.000000E+00
   3.906800E-04   1.400000E-07   1.200000E-03   1.000000E-04   1.000000E+00
   4.176100E-04   1.600000E-07   1.000000E-03   1.000000E-04   1.000000E+00
   4.252900E-04   1.600000E-07   1.100000E-03   1.000000E-04   1.000000E+00
   4.289600E-04   1.600000E-07   2.000000E-03   3.000000E-04   1.000000E+00
   4.596700E-04   1.800000E-07   4.900000E-04   5.000000E-05   1.000000E+00
   4.682000E-04   1.800000E-07   9.000000E-05   2.000000E-05   1.000000E+00
   4.952000E-04   2.000000E-07   9.000000E-05   2.000000E-05   1.000000E+00
   5.127000E-04   2.000000E-07   1.200000E-04   1.000000E-05   1.000000E+00
   5.341800E-04   2.200000E-07   7.600000E-04   8.000000E-05   1.000000E+00
   5.507500E-04   2.200000E-07   2.100000E-03   2.000000E-04   1.000000E+00
   5.581600E-04   2.300000E-07   2.200000E-03   2.000000E-04   1.000000E+00
   5.677500E-04   2.300000E-07   1.100000E-03   1.000000E-04   1.000000E+00
   5.710000E-04   2.400000E-07   1.700000E-03   2.000000E-04   1.000000E+00
   5.876000E-04   2.500000E-07   9.000000E-04   1.000000E-04   1.000000E+00
   6.027000E-04   2.500000E-07   2.500000E-03   3.000000E-04   1.000000E+00
   6.084000E-04   2.600000E-07   4.300000E-04   5.000000E-05   1.000000E+00
   6.468000E-04   2.800000E-07   4.700000E-03   5.000000E-04   1.000000E+00
   6.759000E-04   3.000000E-07   1.500000E-03   1.500000E-04   1.000000E+00
   6.901500E-04   3.100000E-07   7.000000E-04   2.000000E-04   1.000000E+00
   6.948500E-04   3.100000E-07   6.800000E-03   1.000000E-03   1.000000E+00
   7.003000E-04   3.100000E-07   8.000000E-04   2.000000E-04   1.000000E+00
   7.236000E-04   3.300000E-07   2.000000E-03   5.000000E-04   1.000000E+00
   7.521000E-04   3.400000E-07   4.500000E-03   5.000000E-04   1.000000E+00
   7.919000E-04   3.700000E-07   1.100000E-03   2.000000E-04   1.000000E+00
   8.075000E-04   3.800000E-07   1.000000E-03   2.000000E-04   1.000000E+00
   8.525000E-04   4.100000E-07   5.000000E-04   1.000000E-04   1.000000E+00
   8.612000E-04   4.100000E-07   1.400000E-03   1.000000E-04   1.000000E+00
   8.686000E-04   4.200000E-07   4.300000E-03   5.000000E-04   1.000000E+00
   8.937000E-04   4.400000E-07   1.600000E-03   2.000000E-04   1.000000E+00
   9.270000E-04   4.600000E-07   2.500000E-04   5.000000E-05   1.000000E+00
   9.400000E-04   4.700000E-07   4.200000E-03   5.000000E-04   1.000000E+00
   9.830000E-04   5.000000E-07   1.200000E-04   5.000000E-05   1.000000E+00
   1.060000E-03   5.500000E-07   2.700000E-03   5.000000E-04   1.000000E+00
   1.113000E-03   5.900000E-07   1.100000E-03   2.000000E-04   1.000000E+00
# reference:
#   author: M.Ohkubo,Y.Kawarasaki
#   title: Neutron resonance parameters of tungsten-183 up  to 1.1 keV
#   journal: Jour: Jour. of Nuclear Science and Technology, Vol.21, p.805 (1984)
