# header:
#   title: Yb174(n,res) resonance parameter
#   source: EXFOR
#   user: Arjan Koning
#   date: 2024-01-18
#   format: YANDF-0.1
# exfor:
#   author: Liou
#   year: 1973
#   subentry: 100810182
#   X4 reaction: 70-YB-174(N,EL),,WID/RED
#   X4 source: IAEA-NDS C5 file, database version 2023-08-08
#   X4 link: https://nds.iaea.org/EXFOR/100810182
# target:
#   Z: 70
#   A: 174
#   nuclide: Yb174
# reaction:
#   type: (n,res)
#   ENDF_MF: 402
#   ENDF_MT: 151
# datablock:
#   quantity: resonance parameter
#   columns: 5
#   entries: 78
##       E             dE             par           dpar       Normalization
##     [eV]           [eV]            []             []             []
   3.427000E-04   3.500000E-07   2.750000E-02   1.600000E-03   1.000000E+00
   5.854200E-04   3.900000E-07   5.000000E-03   5.000000E-04   1.000000E+00
   8.802300E-04   3.600000E-07   1.920000E-02   1.300000E-03   1.000000E+00
   1.002700E-03   4.000000E-07   7.900000E-03   8.000000E-04   1.000000E+00
   1.179800E-03   6.000000E-07   1.220000E-03   2.000000E-04   1.000000E+00
   1.301300E-03   7.000000E-07   2.600000E-02   2.000000E-03   1.000000E+00
   1.634600E-03   9.000000E-07   3.200000E-04   2.000000E-04   1.000000E+00
   1.668600E-03   1.000000E-06   1.860000E-01   2.400000E-02   1.000000E+00
   1.738800E-03   5.000000E-07   1.920000E-02   3.400000E-03   1.000000E+00
   1.959600E-03   6.000000E-07   5.400001E-02   5.000000E-03   1.000000E+00
   2.073100E-03   7.000000E-07   1.450000E-03   2.600000E-04   1.000000E+00
   2.259900E-03   8.000000E-07   2.300000E-02   3.000000E-03   1.000000E+00
   2.477000E-03   9.000000E-07   1.550000E-02   2.000000E-03   1.000000E+00
   2.571200E-03   9.000000E-07   1.060000E-03   1.800000E-04   1.000000E+00
   2.620400E-03   9.000000E-07   6.600001E-02   8.000000E-03   1.000000E+00
   2.682300E-03   1.000000E-06   7.700000E-04   1.500000E-04   1.000000E+00
   3.058100E-03   1.200000E-06   1.300000E-02   2.000000E-03   1.000000E+00
   3.080100E-03   1.200000E-06   1.590000E-02   2.300000E-03   1.000000E+00
   3.287700E-03   1.300000E-06   7.000001E-02   9.000000E-03   1.000000E+00
   3.540300E-03   1.500000E-06   2.300000E-02   3.000000E-03   1.000000E+00
   3.840700E-03   1.600000E-06   1.100000E-02   2.000000E-03   1.000000E+00
   4.036900E-03   1.800000E-06   1.430000E-02   1.700000E-03   1.000000E+00
   4.146300E-03   1.900000E-06   9.300000E-03   1.600000E-03   1.000000E+00
   4.482600E-03   2.100000E-06   3.300000E-02   4.000000E-03   1.000000E+00
   4.868300E-03   2.300000E-06   5.900000E-02   7.000000E-03   1.000000E+00
   5.149600E-03   2.500000E-06   3.100000E-03   7.000000E-04   1.000000E+00
   5.218900E-03   2.600000E-06   8.200000E-02   1.200000E-02   1.000000E+00
   5.369100E-03   2.700000E-06   4.400000E-03   1.000000E-03   1.000000E+00
   5.653200E-03   2.900000E-06   1.060000E-01   1.300000E-02   1.000000E+00
   5.752000E-03   3.000000E-06   1.450000E-02   2.600000E-03   1.000000E+00
   5.954200E-03   3.200000E-06   1.810000E-02   2.600000E-03   1.000000E+00
   6.333000E-03   3.500000E-06   4.100000E-03   9.000000E-04   1.000000E+00
   6.503600E-03   3.600000E-06   2.400000E-03   9.000000E-04   1.000000E+00
   6.718800E-03   3.800000E-06   1.630000E-02   2.700000E-03   1.000000E+00
   7.080000E-03   4.100000E-06   3.400000E-02   5.000000E-03   1.000000E+00
   7.519400E-03   4.500000E-06   1.220000E-02   2.900000E-03   1.000000E+00
   7.726600E-03   4.700000E-06   1.000000E-01   1.100000E-02   1.000000E+00
   7.851300E-03   4.800000E-06   5.600000E-03   1.500000E-03   1.000000E+00
   8.104900E-03   5.000000E-06   9.200000E-03   2.200000E-03   1.000000E+00
   8.689000E-03   5.600000E-06   5.600000E-02   9.000000E-03   1.000000E+00
   8.840600E-03   5.700000E-06   9.800000E-02   1.300000E-02   1.000000E+00
   9.389000E-03   6.200000E-06   1.210000E-02   2.600000E-03   1.000000E+00
   9.754200E-03   6.600000E-06   5.400001E-02   7.000000E-03   1.000000E+00
   1.001700E-02   7.000000E-06   2.300000E-02   4.000000E-03   1.000000E+00
   1.014800E-02   7.000000E-06   9.400000E-03   3.000000E-03   1.000000E+00
   1.030400E-02   7.000000E-06   1.050000E-01   1.500000E-02   1.000000E+00
   1.040500E-02   7.000000E-06   1.080000E-02   2.900000E-03   1.000000E+00
   1.056600E-02   8.000000E-06   4.200000E-02   7.000000E-03   1.000000E+00
   1.069400E-02   8.000000E-06   4.600000E-02   8.000000E-03   1.000000E+00
   1.087800E-02   8.000000E-06   2.500000E-02   6.000000E-03   1.000000E+00
   1.100300E-02   8.000000E-06   7.500000E-02   1.500000E-02   1.000000E+00
   1.108300E-02   8.000000E-06   3.100000E-02   8.000000E-03   1.000000E+00
   1.139200E-02   9.000000E-06   1.870000E-02   3.700000E-03   1.000000E+00
   1.150100E-02   9.000000E-06   5.300000E-02   9.000000E-03   1.000000E+00
   1.175900E-02   9.000000E-06   3.100000E-02   6.000000E-03   1.000000E+00
   1.202500E-02   9.000000E-06   1.280000E-02   4.100000E-03   1.000000E+00
   1.252800E-02   1.000000E-05   2.200000E-02   6.000000E-03   1.000000E+00
   1.272200E-02   1.000000E-05   9.800000E-02   1.800000E-02   1.000000E+00
   1.319600E-02   1.100000E-05   7.000001E-02   1.400000E-02   1.000000E+00
   1.345000E-02   1.100000E-05   1.190000E-01   1.700000E-02   1.000000E+00
   1.440600E-02   1.200000E-05   1.190000E-01   1.700000E-02   1.000000E+00
   1.452500E-02   1.200000E-05   3.000000E-02   7.000000E-03   1.000000E+00
   1.495300E-02   1.300000E-05   4.000000E-02   8.000000E-03   1.000000E+00
   1.514300E-02   1.300000E-05   1.220000E-02   2.400000E-03   1.000000E+00
   1.525800E-02   1.300000E-05   3.300000E-02   7.000000E-03   1.000000E+00
   1.570700E-02   1.400000E-05   1.440000E-01   2.400000E-02   1.000000E+00
   1.582900E-02   1.400000E-05   7.400000E-02   1.400000E-02   1.000000E+00
   1.614700E-02   1.400000E-05   7.200000E-02   1.400000E-02   1.000000E+00
   1.643100E-02   1.500000E-05   8.200000E-02   1.600000E-02   1.000000E+00
   1.722300E-02   1.600000E-05   2.800000E-02   1.100000E-02   1.000000E+00
   1.756800E-02   1.600000E-05   4.300000E-02   8.000000E-03   1.000000E+00
   1.781000E-02   1.700000E-05   6.900001E-02   1.500000E-02   1.000000E+00
   1.809000E-02   1.700000E-05   3.600000E-02   1.000000E-02   1.000000E+00
   1.820700E-02   1.700000E-05   3.300000E-02   1.000000E-02   1.000000E+00
   1.829100E-02   1.700000E-05   9.600001E-02   1.800000E-02   1.000000E+00
   1.860000E-02   1.800000E-05   4.000000E-02   1.500000E-02   1.000000E+00
   1.891600E-02   1.800000E-05   6.800000E-02   1.800000E-02   1.000000E+00
   1.980100E-02   1.900000E-05   3.300000E-02   7.000000E-03   1.000000E+00
# reference:
#   author: H.I.LIOU,H.S.CAMARDA,G.HACKEN,F.RAHN,J.RAINWATER, M.SLAGOWITZ,S.WYNCHANK
#   title: Neutron resonance spectroscopy. XI. The separated  isotopes of Yb.
#   journal: Jour: Physical Review, Part C, Nuclear Physics, Vol.7, p.823 (1973)
