# header: 
#   title: Ni58(p,res) resonance parameter
#   source: EXFOR
#   user: Arjan Koning
#   date: 2025-12-18
#   format: YANDF-0.4
# exfor: 
#   author: Arai
#   year: 1976
#   subentry: E14940061
#   X4 reaction: 28-NI-58(P,TOT),,WID
#   X4 source: IAEA-NDS C5 file, database version 2023-08-08
#   X4 link: https://nds.iaea.org/EXFOR/E14940061
# target: 
#   Z: 28
#   A: 58
#   nuclide: Ni58
# reaction: 
#   type: (p,res)
#   ENDF_MF: 402
#   ENDF_MT: 151
#   quantity: 
#     type: resonance parameter
#   datablock: 
#     columns: 5
#     entries: 60
##       E             dE             par           dpar       Normalization
##     [eV]           [eV]            []             []             []
   2.958000E+00   0.000000E+00   2.000000E+01   0.000000E+00   1.000000E+00
   2.961000E+00   0.000000E+00   2.000000E+01   0.000000E+00   1.000000E+00
   2.998000E+00   0.000000E+00   6.000000E+01   0.000000E+00   1.000000E+00
   3.054000E+00   0.000000E+00   9.000000E+01   0.000000E+00   1.000000E+00
   3.137200E+00   0.000000E+00   4.000000E+01   0.000000E+00   1.000000E+00
   3.147000E+00   0.000000E+00   4.000000E+01   0.000000E+00   1.000000E+00
   3.147000E+00   0.000000E+00   6.000000E+01   0.000000E+00   1.000000E+00
   3.151000E+00   0.000000E+00   5.000000E+03   0.000000E+00   1.000000E+00
   3.151200E+00   0.000000E+00   8.000000E+01   0.000000E+00   1.000000E+00
   3.166600E+00   0.000000E+00   1.600000E+02   0.000000E+00   1.000000E+00
   3.211600E+00   0.000000E+00   1.000000E+02   0.000000E+00   1.000000E+00
   3.243600E+00   0.000000E+00   1.000000E+02   0.000000E+00   1.000000E+00
   3.265800E+00   0.000000E+00   2.500000E+01   0.000000E+00   1.000000E+00
   3.282000E+00   0.000000E+00   6.000000E+01   0.000000E+00   1.000000E+00
   3.283000E+00   0.000000E+00   6.000000E+01   0.000000E+00   1.000000E+00
   3.353400E+00   0.000000E+00   1.620000E+02   0.000000E+00   1.000000E+00
   3.366000E+00   0.000000E+00   6.300000E+01   0.000000E+00   1.000000E+00
   3.369000E+00   0.000000E+00   1.500000E+02   0.000000E+00   1.000000E+00
   3.388200E+00   0.000000E+00   2.400000E+03   0.000000E+00   1.000000E+00
   3.390000E+00   0.000000E+00   3.000000E+01   0.000000E+00   1.000000E+00
   3.451500E+00   0.000000E+00   5.000000E+01   0.000000E+00   1.000000E+00
   3.473300E+00   0.000000E+00   9.700000E+00   4.000000E-01   1.000000E+00
   3.475500E+00   0.000000E+00   4.760000E+01   4.300000E+00   1.000000E+00
   3.480200E+00   0.000000E+00   1.141000E+02   3.000000E+00   1.000000E+00
   3.505200E+00   0.000000E+00   6.000000E+01   0.000000E+00   1.000000E+00
   3.517400E+00   0.000000E+00   6.900000E+01   3.000000E+00   1.000000E+00
   3.520200E+00   0.000000E+00   1.544000E+03   1.800000E+02   1.000000E+00
   3.544600E+00   0.000000E+00   2.440000E+01   8.000000E-01   1.000000E+00
   3.562200E+00   0.000000E+00   1.500000E+02   0.000000E+00   1.000000E+00
   3.578400E+00   0.000000E+00   2.120000E+02   1.500000E+01   1.000000E+00
   3.583800E+00   0.000000E+00   8.000000E+01   0.000000E+00   1.000000E+00
   3.586200E+00   0.000000E+00   4.000000E+02   0.000000E+00   1.000000E+00
   3.597900E+00   0.000000E+00   9.000000E+01   0.000000E+00   1.000000E+00
   3.607900E+00   0.000000E+00   7.560000E+01   2.500000E+00   1.000000E+00
   3.611500E+00   0.000000E+00   3.550000E+01   3.900000E+00   1.000000E+00
   3.633300E+00   0.000000E+00   3.100000E+01   0.000000E+00   1.000000E+00
   3.657000E+00   0.000000E+00   7.000000E+03   0.000000E+00   1.000000E+00
   3.671500E+00   0.000000E+00   7.800000E+01   0.000000E+00   1.000000E+00
   3.686300E+00   0.000000E+00   1.800000E+01   0.000000E+00   1.000000E+00
   3.718800E+00   0.000000E+00   1.000000E+02   0.000000E+00   1.000000E+00
   3.742400E+00   0.000000E+00   3.145000E+02   7.100000E+00   1.000000E+00
   3.752200E+00   0.000000E+00   2.300000E+03   0.000000E+00   1.000000E+00
   3.775000E+00   0.000000E+00   2.000000E+01   0.000000E+00   1.000000E+00
   3.783100E+00   0.000000E+00   6.727000E+02   3.150000E+01   1.000000E+00
   3.785200E+00   0.000000E+00   8.093000E+02   4.150000E+01   1.000000E+00
   3.797100E+00   0.000000E+00   1.000000E+02   0.000000E+00   1.000000E+00
   3.820200E+00   0.000000E+00   5.000000E+03   0.000000E+00   1.000000E+00
   3.826200E+00   0.000000E+00   5.000000E+02   0.000000E+00   1.000000E+00
   3.834500E+00   0.000000E+00   2.000000E+03   0.000000E+00   1.000000E+00
   3.856300E+00   0.000000E+00   5.000000E+00   0.000000E+00   1.000000E+00
   3.878200E+00   0.000000E+00   6.260000E+02   3.600000E+01   1.000000E+00
   3.889800E+00   0.000000E+00   4.000000E+01   0.000000E+00   1.000000E+00
   3.911000E+00   0.000000E+00   1.800000E+03   0.000000E+00   1.000000E+00
   3.930500E+00   0.000000E+00   6.020000E+01   4.400000E+00   1.000000E+00
   3.932800E+00   0.000000E+00   3.000000E+02   0.000000E+00   1.000000E+00
   3.934000E+00   0.000000E+00   1.512000E+02   7.200000E+00   1.000000E+00
   3.965200E+00   0.000000E+00   1.600000E+03   0.000000E+00   1.000000E+00
   3.981600E+00   0.000000E+00   1.000000E+02   0.000000E+00   1.000000E+00
   3.982600E+00   0.000000E+00   1.150000E+04   0.000000E+00   1.000000E+00
   4.000200E+00   0.000000E+00   8.050000E+01   9.700000E+00   1.000000E+00
# reference:
#   author: E.Arai, M.Ogawa, H.Sato
#   title: High-resolution measurements of analogue states in 59, 61, 63Cu
#   journal: Jour: Nuclear Physics, Section A, Vol.256, Issue.1, p.127 (1976)
