# header: 
#   title: Cd113(n,res) resonance parameter
#   source: EXFOR
#   user: Arjan Koning
#   date: 2025-10-25
#   format: YANDF-0.4
# exfor: 
#   author: Frankle
#   year: 1992
#   subentry: 135450022
#   X4 reaction: 48-CD-113(N,EL),,WID,,G
#   X4 source: IAEA-NDS C5 file, database version 2023-08-08
#   X4 link: https://nds.iaea.org/EXFOR/135450022
# target: 
#   Z: 48
#   A: 113
#   nuclide: Cd113
# reaction: 
#   type: (n,res)
#   ENDF_MF: 402
#   ENDF_MT: 151
#   quantity: 
#     type: resonance parameter
#   datablock: 
#     columns: 5
#     entries: 23
##       E             dE             par           dpar       Normalization
##     [eV]           [eV]            []             []             []
   7.000000E-06   0.000000E+00   3.100000E-07   3.000000E-08   1.000000E+00
   2.180000E-05   1.500000E-07   2.900000E-06   3.000000E-07   1.000000E+00
   4.315000E-05   2.900000E-07   1.900000E-06   2.000000E-07   1.000000E+00
   4.962000E-05   3.300000E-07   9.000000E-06   1.100000E-06   1.000000E+00
   5.600000E-05   3.700000E-07   3.900000E-05   4.700000E-06   1.000000E+00
   8.164000E-05   5.500000E-07   7.600000E-06   1.500000E-06   1.000000E+00
   9.818000E-05   6.600000E-07   3.230000E-05   3.200000E-06   1.000000E+00
   1.020000E-04   7.000000E-07   2.390000E-05   2.400000E-06   1.000000E+00
   1.061000E-04   7.000000E-07   7.900000E-06   1.400000E-06   1.000000E+00
   1.660000E-04   1.100000E-06   1.160000E-05   1.300000E-06   1.000000E+00
   1.948000E-04   1.300000E-06   3.400000E-06   6.000000E-07   1.000000E+00
   2.109000E-04   1.400000E-06   7.300000E-05   1.070000E-05   1.000000E+00
   2.313000E-04   1.500000E-06   7.200000E-04   1.100000E-04   1.000000E+00
   2.367000E-04   1.600000E-06   1.050000E-04   1.600000E-05   1.000000E+00
   2.514000E-04   1.700000E-06   8.000000E-05   1.000000E-05   1.000000E+00
   2.804000E-04   1.900000E-06   2.400000E-04   2.800000E-05   1.000000E+00
   3.420000E-04   2.300000E-06   8.000000E-05   3.000000E-05   1.000000E+00
   3.573000E-04   2.400000E-06   1.900000E-04   3.000000E-05   1.000000E+00
   3.747000E-04   2.500000E-06   7.000000E-04   1.000000E-04   1.000000E+00
   4.443000E-04   3.000000E-06   1.100000E-03   1.500000E-04   1.000000E+00
   4.549000E-04   3.000000E-06   8.340000E-04   1.130000E-04   1.000000E+00
   4.868000E-04   3.200000E-06   4.500000E-04   6.200000E-05   1.000000E+00
   4.924000E-04   3.300000E-06   5.300000E-04   6.800000E-05   1.000000E+00
# reference:
#   author: C.M.FRANKLE,C.D.BOWMAN,J.D.BOWMAN,S.J.SEESTROM, E.I.SHARAPOV,YU.P.POPOV,N.R.ROBERSON
#   title: NEUTRON RESONANCE SPECTROSCOPY ON 113CD: THE P-WAVE  LEVELS
#   journal: Jour: Physical Review, Part C, Nuclear Physics, Vol.45, p.2143 (1992)
