# header: 
#   title: Rb87(n,res) resonance parameter
#   source: EXFOR
#   user: Arjan Koning
#   date: 2025-08-01
#   format: YANDF-0.2
# exfor: 
#   author: Ohkubo
#   year: 1984
#   subentry: 227640091
#   X4 reaction: 37-RB-87(N,0),,EN
#   X4 source: IAEA-NDS C5 file, database version 2023-08-08
#   X4 link: https://nds.iaea.org/EXFOR/227640091
# target: 
#   Z: 37
#   A: 87
#   nuclide: Rb87
# reaction: 
#   type: (n,res)
#   ENDF_MF: 402
#   ENDF_MT: 151
#   quantity: 
#     type: resonance parameter
#   datablock: 
#     columns: 5
#     entries: 30
##       E             dE             par           dpar       Normalization
##     [eV]           [eV]            []             []             []
   2.671000E-04   1.000000E-07   2.671000E+02   1.000000E-01   1.000000E+00
   3.769000E-04   1.000000E-07   3.769000E+02   1.000000E-01   1.000000E+00
   8.690000E-04   3.000000E-07   8.690000E+02   3.000000E-01   1.000000E+00
   3.823300E-03   1.200000E-06   3.823300E+03   1.200000E+00   1.000000E+00
   5.115000E-03   1.800000E-06   5.115000E+03   1.800000E+00   1.000000E+00
   7.344000E-03   2.800000E-06   7.344000E+03   2.800000E+00   1.000000E+00
   7.560000E-03   2.900000E-06   7.560000E+03   2.900000E+00   1.000000E+00
   8.768000E-03   3.500000E-06   8.768000E+03   3.500000E+00   1.000000E+00
   9.840000E-03   4.100000E-06   9.840000E+03   4.100000E+00   1.000000E+00
   1.034600E-02   4.400000E-06   1.034600E+04   4.400000E+00   1.000000E+00
   1.106000E-02   4.800000E-06   1.106000E+04   4.800000E+00   1.000000E+00
   1.386500E-02   6.600000E-06   1.386500E+04   6.600000E+00   1.000000E+00
   1.851000E-02   9.900000E-06   1.851000E+04   9.900000E+00   1.000000E+00
   2.196000E-02   1.300000E-05   2.196000E+04   1.300000E+01   1.000000E+00
   2.313000E-02   1.400000E-05   2.313000E+04   1.400000E+01   1.000000E+00
   2.354600E-02   1.400000E-05   2.354600E+04   1.400000E+01   1.000000E+00
   2.386000E-02   1.400000E-05   2.386000E+04   1.400000E+01   1.000000E+00
   2.633500E-02   1.600000E-05   2.633500E+04   1.600000E+01   1.000000E+00
   2.828500E-02   1.800000E-05   2.828500E+04   1.800000E+01   1.000000E+00
   2.841000E-02   1.800000E-05   2.841000E+04   1.800000E+01   1.000000E+00
   2.983000E-02   2.000000E-05   2.983000E+04   2.000000E+01   1.000000E+00
   2.993300E-02   2.000000E-05   2.993300E+04   2.000000E+01   1.000000E+00
   3.157600E-02   2.100000E-05   3.157600E+04   2.100000E+01   1.000000E+00
   3.348300E-02   2.300000E-05   3.348300E+04   2.300000E+01   1.000000E+00
   3.721600E-02   2.700000E-05   3.721600E+04   2.700000E+01   1.000000E+00
   4.112500E-02   3.100000E-05   4.112500E+04   3.100000E+01   1.000000E+00
   4.196000E-02   3.200000E-05   4.196000E+04   3.200000E+01   1.000000E+00
   4.315000E-02   3.400000E-05   4.315000E+04   3.400000E+01   1.000000E+00
   4.710000E-02   3.800000E-05   4.710000E+04   3.800000E+01   1.000000E+00
   4.862600E-02   4.000000E-05   4.862600E+04   4.000000E+01   1.000000E+00
# reference:
#   author: M.OHKUBO,M.MIZUMOTO,Y.KAWARASAKI
#   title: Neutron resonance parameters of Rubidium-85 and Rubidium-87
#   journal: Jour: Jour. of Nuclear Science and Technology, Vol.21, p.254 (1984)
