# header: 
#   title: Ce142(n,res) resonance parameter
#   source: EXFOR
#   user: Arjan Koning
#   date: 2025-10-25
#   format: YANDF-0.4
# exfor: 
#   author: Ohkubo
#   year: 1993
#   subentry: 208190072
#   X4 reaction: 58-CE-142(N,EL),,WID/RED
#   X4 source: IAEA-NDS C5 file, database version 2023-08-08
#   X4 link: https://nds.iaea.org/EXFOR/208190072
# target: 
#   Z: 58
#   A: 142
#   nuclide: Ce142
# reaction: 
#   type: (n,res)
#   ENDF_MF: 402
#   ENDF_MT: 151
#   quantity: 
#     type: resonance parameter
#   datablock: 
#     columns: 5
#     entries: 37
##       E             dE             par           dpar       Normalization
##     [eV]           [eV]            []             []             []
   1.277000E-03   9.000000E-07   2.000000E+00   9.000000E-01   1.000000E+00
   1.742000E-03   1.500000E-06   3.100000E-03   1.500000E+00   1.000000E+00
   2.793000E-03   2.900000E-06   3.250000E-01   2.900000E+00   1.000000E+00
   3.835000E-03   4.700000E-06   6.000000E-01   4.700000E+00   1.000000E+00
   4.295000E-03   5.600000E-06   2.500000E-03   5.600000E+00   1.000000E+00
   4.525000E-03   6.100000E-06   8.000000E-03   6.100000E+00   1.000000E+00
   5.623000E-03   8.399999E-06   1.500000E-02   8.400000E+00   1.000000E+00
   5.816000E-03   8.900000E-06   1.600000E-03   8.900000E+00   1.000000E+00
   6.429000E-03   1.000000E-05   2.900000E-03   1.000000E+01   1.000000E+00
   8.149000E-03   1.500000E-05   4.000000E-02   1.500000E+01   1.000000E+00
   8.401000E-03   1.500000E-05   2.100000E-01   1.500000E+01   1.000000E+00
   9.433000E-03   1.800000E-05   1.300000E-02   1.800000E+01   1.000000E+00
   1.091500E-02   2.300000E-05   1.600000E-02   2.300000E+01   1.000000E+00
   1.117700E-02   2.400000E-05   1.000000E-01   2.400000E+01   1.000000E+00
   1.131800E-02   2.400000E-05   2.600000E-02   2.400000E+01   1.000000E+00
   1.197000E-02   2.600000E-05   3.000000E-02   2.600000E+01   1.000000E+00
   1.277500E-02   2.900000E-05   2.800000E-01   2.900000E+01   1.000000E+00
   1.397600E-02   3.300000E-05   1.400000E-02   3.300000E+01   1.000000E+00
   1.522500E-02   3.700000E-05   7.600001E-01   3.700000E+01   1.000000E+00
   1.663800E-02   4.300000E-05   4.000000E-02   4.300000E+01   1.000000E+00
   1.729800E-02   4.500000E-05   9.500001E-02   4.500000E+01   1.000000E+00
   1.782200E-02   4.800000E-05   2.700000E-02   4.800000E+01   1.000000E+00
   1.941400E-02   5.400000E-05   1.000000E-02   5.400000E+01   1.000000E+00
   2.057600E-02   5.900000E-05   1.480000E-01   5.900000E+01   1.000000E+00
   2.117300E-02   6.200000E-05   1.500000E-02   6.200000E+01   1.000000E+00
   2.260000E-02   6.800000E-05   1.080000E+00   6.800000E+01   1.000000E+00
   2.319000E-02   7.100000E-05   1.270000E+00   7.100000E+01   1.000000E+00
   2.474000E-02   7.800000E-05   3.600000E-01   7.800000E+01   1.000000E+00
   2.536000E-02   8.100000E-05   2.150000E+00   8.100000E+01   1.000000E+00
   2.930000E-02   1.000000E-04   2.100000E-01   1.000000E+02   1.000000E+00
   3.088000E-02   1.080000E-04   1.700000E-01   1.080000E+02   1.000000E+00
   3.816000E-02   1.490000E-04   7.000000E-01   1.490000E+02   1.000000E+00
   3.889000E-02   1.530000E-04   1.900000E-01   1.530000E+02   1.000000E+00
   3.964000E-02   1.580000E-04   3.100000E-01   1.580000E+02   1.000000E+00
   4.272500E-02   1.760000E-04   3.000000E-01   1.760000E+02   1.000000E+00
   4.336500E-02   1.800000E-04   1.770000E+00   1.800000E+02   1.000000E+00
   4.924500E-02   2.180000E-04   3.000000E-01   2.180000E+02   1.000000E+00
# reference:
#   author: M.Ohkubo,M.Mizumoto,Y.Nakajima
#   title: Neutron transmission measurements on 121Sb, 123Sb, 140Ce and 142Ce in the resonance region
#   journal: Rept: JAERI-M Reports, No.93-012 (1993)
