# header: 
#   title: Pb208(n,res) resonance parameter
#   source: EXFOR
#   user: Arjan Koning
#   date: 2025-10-25
#   format: YANDF-0.4
# exfor: 
#   author: Horen
#   year: 1986
#   subentry: 137380021
#   X4 reaction: 82-PB-208(N,0),,EN
#   X4 source: IAEA-NDS C5 file, database version 2023-08-08
#   X4 link: https://nds.iaea.org/EXFOR/137380021
# target: 
#   Z: 82
#   A: 208
#   nuclide: Pb208
# reaction: 
#   type: (n,res)
#   ENDF_MF: 402
#   ENDF_MT: 151
#   quantity: 
#     type: resonance parameter
#   datablock: 
#     columns: 5
#     entries: 64
##       E             dE             par           dpar       Normalization
##     [eV]           [eV]            []             []             []
   4.726000E-02   1.417800E-05   4.726000E+04   1.417800E+01   1.000000E+00
   7.121000E-02   2.136300E-05   7.121000E+04   2.136300E+01   1.000000E+00
   7.825000E-02   2.347500E-05   7.825000E+04   2.347500E+01   1.000000E+00
   8.656000E-02   2.596800E-05   8.656000E+04   2.596800E+01   1.000000E+00
   1.172200E-01   3.516600E-05   1.172200E+05   3.516600E+01   1.000000E+00
   1.301700E-01   3.905100E-05   1.301700E+05   3.905100E+01   1.000000E+00
   1.532500E-01   4.597500E-05   1.532500E+05   4.597500E+01   1.000000E+00
   1.635000E-01   4.905000E-05   1.635000E+05   4.905000E+01   1.000000E+00
   1.680000E-01   5.040000E-05   1.680000E+05   5.040000E+01   1.000000E+00
   1.685300E-01   5.055900E-05   1.685300E+05   5.055900E+01   1.000000E+00
   1.693800E-01   5.081400E-05   1.693800E+05   5.081400E+01   1.000000E+00
   2.701000E-01   8.103000E-05   2.701000E+05   8.103000E+01   1.000000E+00
   2.779900E-01   8.339700E-05   2.779900E+05   8.339700E+01   1.000000E+00
   3.242300E-01   9.726900E-05   3.242300E+05   9.726900E+01   1.000000E+00
   3.540000E-01   1.062000E-04   3.540000E+05   1.062000E+02   1.000000E+00
   3.541000E-01   1.062300E-04   3.541000E+05   1.062300E+02   1.000000E+00
   4.071000E-01   1.221300E-04   4.071000E+05   1.221300E+02   1.000000E+00
   4.185000E-01   1.255500E-04   4.185000E+05   1.255500E+02   1.000000E+00
   4.383000E-01   1.314900E-04   4.383000E+05   1.314900E+02   1.000000E+00
   4.890000E-01   1.467000E-04   4.890000E+05   1.467000E+02   1.000000E+00
   5.057000E-01   1.517100E-04   5.057000E+05   1.517100E+02   1.000000E+00
   5.060000E-01   1.518000E-04   5.060000E+05   1.518000E+02   1.000000E+00
   5.271000E-01   1.581300E-04   5.271000E+05   1.581300E+02   1.000000E+00
   5.639000E-01   1.691700E-04   5.639000E+05   1.691700E+02   1.000000E+00
   5.676000E-01   1.702800E-04   5.676000E+05   1.702800E+02   1.000000E+00
   5.708000E-01   1.712400E-04   5.708000E+05   1.712400E+02   1.000000E+00
   5.836000E-01   1.750800E-04   5.836000E+05   1.750800E+02   1.000000E+00
   5.976000E-01   1.792800E-04   5.976000E+05   1.792800E+02   1.000000E+00
   6.091000E-01   1.827300E-04   6.091000E+05   1.827300E+02   1.000000E+00
   6.130000E-01   1.839000E-04   6.130000E+05   1.839000E+02   1.000000E+00
   6.159000E-01   1.847700E-04   6.159000E+05   1.847700E+02   1.000000E+00
   6.349000E-01   1.904700E-04   6.349000E+05   1.904700E+02   1.000000E+00
   6.361000E-01   1.908300E-04   6.361000E+05   1.908300E+02   1.000000E+00
   6.868000E-01   2.060400E-04   6.868000E+05   2.060400E+02   1.000000E+00
   6.932000E-01   2.079600E-04   6.932000E+05   2.079600E+02   1.000000E+00
   6.995000E-01   2.098500E-04   6.995000E+05   2.098500E+02   1.000000E+00
   7.210000E-01   2.163000E-04   7.210000E+05   2.163000E+02   1.000000E+00
   7.217000E-01   2.165100E-04   7.217000E+05   2.165100E+02   1.000000E+00
   7.230000E-01   2.169000E-04   7.230000E+05   2.169000E+02   1.000000E+00
   7.391000E-01   2.217300E-04   7.391000E+05   2.217300E+02   1.000000E+00
   7.643000E-01   2.292900E-04   7.643000E+05   2.292900E+02   1.000000E+00
   7.649000E-01   2.294700E-04   7.649000E+05   2.294700E+02   1.000000E+00
   7.861000E-01   2.358300E-04   7.861000E+05   2.358300E+02   1.000000E+00
   8.141000E-01   2.442300E-04   8.141000E+05   2.442300E+02   1.000000E+00
   8.144000E-01   2.443200E-04   8.144000E+05   2.443200E+02   1.000000E+00
   8.157000E-01   2.447100E-04   8.157000E+05   2.447100E+02   1.000000E+00
   8.240000E-01   2.472000E-04   8.240000E+05   2.472000E+02   1.000000E+00
   8.321000E-01   2.496300E-04   8.321000E+05   2.496300E+02   1.000000E+00
   8.505000E-01   2.551500E-04   8.505000E+05   2.551500E+02   1.000000E+00
   8.610000E-01   2.583000E-04   8.610000E+05   2.583000E+02   1.000000E+00
   8.778000E-01   2.633400E-04   8.778000E+05   2.633400E+02   1.000000E+00
   8.848000E-01   2.654400E-04   8.848000E+05   2.654400E+02   1.000000E+00
   8.882000E-01   2.664600E-04   8.882000E+05   2.664600E+02   1.000000E+00
   9.106000E-01   2.731800E-04   9.106000E+05   2.731800E+02   1.000000E+00
   9.116000E-01   2.734800E-04   9.116000E+05   2.734800E+02   1.000000E+00
   9.205000E-01   2.761500E-04   9.205000E+05   2.761500E+02   1.000000E+00
   9.270000E-01   2.781000E-04   9.270000E+05   2.781000E+02   1.000000E+00
   9.444000E-01   2.833200E-04   9.444000E+05   2.833200E+02   1.000000E+00
   9.472000E-01   2.841600E-04   9.472000E+05   2.841600E+02   1.000000E+00
   9.479000E-01   2.843700E-04   9.479000E+05   2.843700E+02   1.000000E+00
   9.496000E-01   2.848800E-04   9.496000E+05   2.848800E+02   1.000000E+00
   9.743000E-01   2.922900E-04   9.743000E+05   2.922900E+02   1.000000E+00
   9.842000E-01   2.952600E-04   9.842000E+05   2.952600E+02   1.000000E+00
   9.977000E-01   2.993100E-04   9.977000E+05   2.993100E+02   1.000000E+00
# reference:
#   author: D.J.Horen,C.H.Johnson,J.L.Fowler,A.D.Mackellar, B.Castel
#   title: 208Pb+n reaction and the mean nuclear field  near threshold
#   journal: Jour: Physical Review, Part C, Nuclear Physics, Vol.34, p.429 (1986)
