# header: 
#   title: Mo96(n,res) resonance parameter
#   source: EXFOR
#   user: Arjan Koning
#   date: 2025-08-01
#   format: YANDF-0.2
# exfor: 
#   author: Brown
#   year: 2017
#   subentry: 147830026
#   X4 reaction: 42-MO-96(N,EL),,WID
#   X4 source: IAEA-NDS C5 file, database version 2023-08-08
#   X4 link: https://nds.iaea.org/EXFOR/147830026
# target: 
#   Z: 42
#   A: 96
#   nuclide: Mo96
# reaction: 
#   type: (n,res)
#   ENDF_MF: 402
#   ENDF_MT: 151
#   quantity: 
#     type: resonance parameter
#   datablock: 
#     columns: 5
#     entries: 74
##       E             dE             par           dpar       Normalization
##     [eV]           [eV]            []             []             []
   1.133300E-04   1.000000E-08   5.300000E-04   6.000000E-06   1.000000E+00
   1.314000E-04   0.000000E+00   3.260000E-01   0.000000E+00   1.000000E+00
   4.189400E-04   1.000000E-08   6.120000E-03   9.000000E-05   1.000000E+00
   9.676000E-04   1.000000E-07   3.200000E-03   2.000000E-04   1.000000E+00
   1.265700E-03   4.000000E-07   2.100000E-03   2.000000E-04   1.000000E+00
   1.492800E-03   2.000000E-07   9.600000E-03   5.000000E-04   1.000000E+00
   2.077100E-03   4.000000E-07   9.300000E-03   7.000000E-04   1.000000E+00
   2.362670E-03   5.000000E-08   4.100000E+00   1.600000E-02   1.000000E+00
   2.482600E-03   6.000000E-07   1.900000E-02   2.000000E-03   1.000000E+00
   2.777500E-03   2.000000E-07   5.900000E-02   3.000000E-03   1.000000E+00
   3.283300E-03   1.000000E-07   1.567000E+01   4.700000E-02   1.000000E+00
   3.286000E-03   0.000000E+00   9.200001E-02   0.000000E+00   1.000000E+00
   3.570900E-03   1.000000E-07   7.324000E+00   3.900000E-02   1.000000E+00
   3.755900E-03   3.000000E-07   1.100000E-01   7.000000E-03   1.000000E+00
   4.318080E-03   7.000000E-08   3.520000E-01   1.100000E-02   1.000000E+00
   4.411500E-03   1.000000E-07   1.120000E-01   5.000000E-03   1.000000E+00
   4.559500E-03   3.000000E-07   5.000000E-02   3.000000E-03   1.000000E+00
   4.953000E-03   5.000000E-07   1.370000E-02   0.000000E+00   1.000000E+00
   5.374990E-03   9.000000E-08   4.536000E+00   4.200000E-02   1.000000E+00
   5.403900E-03   3.000000E-07   1.080000E-01   7.000000E-03   1.000000E+00
   5.607700E-03   1.000000E-07   2.750000E-01   1.400000E-02   1.000000E+00
   5.787400E-03   2.000000E-07   1.110000E-01   6.000000E-03   1.000000E+00
   6.033900E-03   1.000000E-07   2.650000E-01   1.300000E-02   1.000000E+00
   6.556600E-03   1.000000E-07   3.150000E-01   1.600000E-02   1.000000E+00
   7.051300E-03   1.000000E-07   5.920000E-01   2.500000E-02   1.000000E+00
   7.382000E-03   0.000000E+00   3.200000E-02   0.000000E+00   1.000000E+00
   7.725500E-03   6.000000E-07   7.200000E-02   6.000000E-03   1.000000E+00
   7.761700E-03   2.000000E-07   1.870000E-01   1.000000E-02   1.000000E+00
   7.892900E-03   1.000000E-07   4.994000E+00   5.400001E-02   1.000000E+00
   7.934400E-03   5.000000E-07   1.500000E-01   1.100000E-02   1.000000E+00
   8.013600E-03   1.000000E-07   1.250000E+00   3.500000E-02   1.000000E+00
   8.316300E-03   2.000000E-07   1.637000E+00   5.200000E-02   1.000000E+00
   8.404400E-03   1.000000E-07   1.363000E+00   4.100000E-02   1.000000E+00
   8.695800E-03   3.000000E-07   2.940000E-01   1.700000E-02   1.000000E+00
   9.074500E-03   2.000000E-07   2.830000E-01   1.500000E-02   1.000000E+00
   9.368599E-03   1.000000E-07   2.568000E+00   5.100000E-02   1.000000E+00
   9.681299E-03   2.000000E-07   3.550000E-01   1.800000E-02   1.000000E+00
   9.978200E-03   2.000000E-07   1.531700E+01   1.070000E-01   1.000000E+00
   1.009250E-02   2.000000E-07   5.110000E-01   3.000000E-02   1.000000E+00
   1.024880E-02   2.000000E-07   1.516000E+00   5.800000E-02   1.000000E+00
   1.086400E-02   0.000000E+00   4.900000E-02   0.000000E+00   1.000000E+00
   1.092800E-02   0.000000E+00   2.770000E-02   0.000000E+00   1.000000E+00
   1.105170E-02   8.000000E-07   8.800001E-02   7.000000E-03   1.000000E+00
   1.150000E-02   0.000000E+00   2.340000E-02   0.000000E+00   1.000000E+00
   1.189080E-02   2.000000E-07   1.669000E+00   5.400001E-02   1.000000E+00
   1.205100E-02   0.000000E+00   2.920000E-01   0.000000E+00   1.000000E+00
   1.229620E-02   3.000000E-07   8.100001E-01   4.100000E-02   1.000000E+00
   1.308000E-02   0.000000E+00   2.500000E-01   0.000000E+00   1.000000E+00
   1.357890E-02   4.000000E-07   5.280001E-01   3.000000E-02   1.000000E+00
   1.385510E-02   9.000000E-07   2.870000E-01   2.200000E-02   1.000000E+00
   1.391720E-02   4.000000E-07   6.730000E-01   4.000000E-02   1.000000E+00
   1.405420E-02   7.000000E-07   2.170000E-01   1.600000E-02   1.000000E+00
   1.445070E-02   3.000000E-07   9.530001E-01   5.200000E-02   1.000000E+00
   1.469000E-02   0.000000E+00   4.500000E-02   0.000000E+00   1.000000E+00
   1.499790E-02   8.000000E-07   2.480000E-01   1.900000E-02   1.000000E+00
   1.532070E-02   3.000000E-07   2.371000E+00   7.200000E-02   1.000000E+00
   1.539470E-02   3.000000E-07   2.084000E+00   8.000001E-02   1.000000E+00
   1.546790E-02   3.000000E-07   2.418000E+00   8.300000E-02   1.000000E+00
   1.578210E-02   3.000000E-07   1.552000E+00   6.700000E-02   1.000000E+00
   1.613360E-02   5.000000E-07   5.800000E-01   3.500000E-02   1.000000E+00
   1.638740E-02   2.000000E-07   1.205300E+01   1.460000E-01   1.000000E+00
   1.642800E-02   0.000000E+00   4.160000E-01   0.000000E+00   1.000000E+00
   1.670000E-02   0.000000E+00   2.340000E-01   0.000000E+00   1.000000E+00
   1.678800E-02   5.000000E-07   2.391000E+00   1.290000E-01   1.000000E+00
   1.700910E-02   1.200000E-06   2.250000E-01   1.800000E-02   1.000000E+00
   1.724500E-02   0.000000E+00   3.500000E-02   0.000000E+00   1.000000E+00
   1.775650E-02   4.000000E-07   1.177000E+00   6.600001E-02   1.000000E+00
   1.792320E-02   9.000000E-07   5.410000E-01   4.100000E-02   1.000000E+00
   1.823900E-02   5.000000E-07   1.869000E+00   8.400001E-02   1.000000E+00
   1.853190E-02   5.000000E-07   1.471000E+00   7.800000E-02   1.000000E+00
   1.895740E-02   4.000000E-07   1.714000E+00   8.400001E-02   1.000000E+00
   1.913500E-02   0.000000E+00   3.850000E-02   0.000000E+00   1.000000E+00
   1.933610E-02   4.000000E-07   2.712000E+00   9.800000E-02   1.000000E+00
   1.957160E-02   4.000000E-07   2.821000E+00   1.130000E-01   1.000000E+00
# reference:
#   author: J.M.Brown,A.Youmans,N.Thompson,Y.Danon,D.P.Barry, G.Leinweber,M.J.Rapp,R.C.Block,R.Bahran
#   title: Neutron transmission measurements and resonance analysis of Molybdenum-96
#   journal: Conf: 13th Int.Meeting on Nucl.Appl.of Accel., Quebec, 2017, p.426 (2017
