# header: 
#   title: Mo96(n,res) resonance parameter
#   source: EXFOR
#   user: Arjan Koning
#   date: 2025-10-25
#   format: YANDF-0.4
# exfor: 
#   author: Weigmann
#   year: 1971
#   subentry: 20398021
#   X4 reaction: 42-MO-96(N,0),,EN
#   X4 source: IAEA-NDS C5 file, database version 2023-08-08
#   X4 link: https://nds.iaea.org/EXFOR/20398021
# target: 
#   Z: 42
#   A: 96
#   nuclide: Mo96
# reaction: 
#   type: (n,res)
#   ENDF_MF: 402
#   ENDF_MT: 151
#   quantity: 
#     type: resonance parameter
#   datablock: 
#     columns: 5
#     entries: 24
##       E             dE             par           dpar       Normalization
##     [eV]           [eV]            []             []             []
   1.134100E-04   0.000000E+00   1.134100E+02   0.000000E+00   1.000000E+00
   1.314000E-04   0.000000E+00   1.314000E+02   0.000000E+00   1.000000E+00
   4.191400E-04   0.000000E+00   4.191400E+02   0.000000E+00   1.000000E+00
   9.684100E-04   0.000000E+00   9.684100E+02   0.000000E+00   1.000000E+00
   1.267000E-03   0.000000E+00   1.267000E+03   0.000000E+00   1.000000E+00
   1.496000E-03   0.000000E+00   1.496000E+03   0.000000E+00   1.000000E+00
   2.080600E-03   0.000000E+00   2.080600E+03   0.000000E+00   1.000000E+00
   2.362600E-03   0.000000E+00   2.362600E+03   0.000000E+00   1.000000E+00
   2.484400E-03   0.000000E+00   2.484400E+03   0.000000E+00   1.000000E+00
   2.779500E-03   0.000000E+00   2.779500E+03   0.000000E+00   1.000000E+00
   3.282600E-03   0.000000E+00   3.282600E+03   0.000000E+00   1.000000E+00
   3.571400E-03   0.000000E+00   3.571400E+03   0.000000E+00   1.000000E+00
   3.757400E-03   0.000000E+00   3.757400E+03   0.000000E+00   1.000000E+00
   4.317300E-03   0.000000E+00   4.317300E+03   0.000000E+00   1.000000E+00
   4.412100E-03   0.000000E+00   4.412100E+03   0.000000E+00   1.000000E+00
   4.560000E-03   0.000000E+00   4.560000E+03   0.000000E+00   1.000000E+00
   4.941900E-03   0.000000E+00   4.941900E+03   0.000000E+00   1.000000E+00
   5.374000E-03   0.000000E+00   5.374000E+03   0.000000E+00   1.000000E+00
   5.402000E-03   0.000000E+00   5.402000E+03   0.000000E+00   1.000000E+00
   5.611000E-03   0.000000E+00   5.611000E+03   0.000000E+00   1.000000E+00
   5.784000E-03   0.000000E+00   5.784000E+03   0.000000E+00   1.000000E+00
   6.032000E-03   0.000000E+00   6.032000E+03   0.000000E+00   1.000000E+00
   6.560000E-03   0.000000E+00   6.560000E+03   0.000000E+00   1.000000E+00
   7.051000E-03   0.000000E+00   7.051000E+03   0.000000E+00   1.000000E+00
# reference:
#   author: H.WEIGMANN, G.ROHR, J.WINTER
#   title: -NEUTRON CAPTURE MEASUREMENTS AND RESONANCE PARAMETERS  OF MO-ISOTOPES.-
#   journal: Conf: 3rd Conf.Neutron Cross-Sections+Tech.,Knoxville 1971, p.749 (1971)
