# header:
#   title: Mo96(n,res) resonance parameter
#   source: EXFOR
#   user: Arjan Koning
#   date: 2024-01-18
#   format: YANDF-0.1
# exfor:
#   author: Weigmann
#   year: 1971
#   subentry: 20398018
#   X4 reaction: (42-MO-96(N,EL),,WID,,G)*(42-MO-96(N,G),,WID)/(42-MO-96(N,TO
#   X4 source: IAEA-NDS C5 file, database version 2023-08-08
#   X4 link: https://nds.iaea.org/EXFOR/20398018
# target:
#   Z: 42
#   A: 96
#   nuclide: Mo96
# reaction:
#   type: (n,res)
#   ENDF_MF: 402
#   ENDF_MT: 151
# datablock:
#   quantity: resonance parameter
#   columns: 5
#   entries: 22
##       E             dE             par           dpar       Normalization
##     [eV]           [eV]            []             []             []
   1.134100E-04   0.000000E+00   4.500000E-04   4.000000E-05   1.000000E+00
   1.314000E-04   0.000000E+00   6.600001E-02   4.000000E-03   1.000000E+00
   4.191400E-04   0.000000E+00   5.800000E-03   4.000000E-04   1.000000E+00
   9.684100E-04   0.000000E+00   2.700000E-03   4.000000E-04   1.000000E+00
   1.267000E-03   0.000000E+00   2.200000E-03   3.000000E-04   1.000000E+00
   1.496000E-03   0.000000E+00   9.400000E-03   7.000000E-04   1.000000E+00
   2.080600E-03   0.000000E+00   7.100000E-03   1.000000E-03   1.000000E+00
   2.362600E-03   0.000000E+00   1.580000E-01   1.500000E-02   1.000000E+00
   2.484400E-03   0.000000E+00   2.700000E-02   2.000000E-03   1.000000E+00
   2.779500E-03   0.000000E+00   4.500000E-02   4.000000E-03   1.000000E+00
   3.282600E-03   0.000000E+00   1.820000E-01   2.700000E-02   1.000000E+00
   3.571400E-03   0.000000E+00   1.020000E-01   8.000000E-03   1.000000E+00
   3.757400E-03   0.000000E+00   1.100000E-01   9.000000E-03   1.000000E+00
   4.317300E-03   0.000000E+00   7.500000E-02   7.000000E-03   1.000000E+00
   4.412100E-03   0.000000E+00   8.700000E-02   8.000000E-03   1.000000E+00
   4.560000E-03   0.000000E+00   4.000000E-02   4.000000E-03   1.000000E+00
   4.941900E-03   0.000000E+00   1.800000E-02   3.900000E-03   1.000000E+00
   5.611000E-03   0.000000E+00   1.950000E-01   1.900000E-02   1.000000E+00
   5.784000E-03   0.000000E+00   6.800000E-02   6.000000E-03   1.000000E+00
   6.032000E-03   0.000000E+00   1.550000E-01   1.800000E-02   1.000000E+00
   6.560000E-03   0.000000E+00   2.200000E-01   2.600000E-02   1.000000E+00
   7.051000E-03   0.000000E+00   1.080000E-01   1.100000E-02   1.000000E+00
# reference:
#   author: H.WEIGMANN, G.ROHR, J.WINTER
#   title: -NEUTRON CAPTURE MEASUREMENTS AND RESONANCE PARAMETERS  OF MO-ISOTOPES.-
#   journal: Conf: 3rd Conf.Neutron Cross-Sections+Tech.,Knoxville 1971, p.749 (1971)
