# header: 
#   title: Ba135(n,res) resonance parameter
#   source: EXFOR
#   user: Arjan Koning
#   date: 2025-08-01
#   format: YANDF-0.2
# exfor: 
#   author: Mizumoto
#   year: 1988
#   subentry: 221260021
#   X4 reaction: 56-BA-135(N,0),,EN
#   X4 source: IAEA-NDS C5 file, database version 2023-08-08
#   X4 link: https://nds.iaea.org/EXFOR/221260021
# target: 
#   Z: 56
#   A: 135
#   nuclide: Ba135
# reaction: 
#   type: (n,res)
#   ENDF_MF: 402
#   ENDF_MT: 151
#   quantity: 
#     type: resonance parameter
#   datablock: 
#     columns: 5
#     entries: 68
##       E             dE             par           dpar       Normalization
##     [eV]           [eV]            []             []             []
   4.045000E-04   0.000000E+00   4.045000E+02   0.000000E+00   1.000000E+00
   4.327000E-04   0.000000E+00   4.327000E+02   0.000000E+00   1.000000E+00
   4.651000E-04   0.000000E+00   4.651000E+02   0.000000E+00   1.000000E+00
   6.505999E-04   0.000000E+00   6.506000E+02   0.000000E+00   1.000000E+00
   6.671000E-04   0.000000E+00   6.671000E+02   0.000000E+00   1.000000E+00
   7.204000E-04   0.000000E+00   7.204000E+02   0.000000E+00   1.000000E+00
   8.293000E-04   0.000000E+00   8.293000E+02   0.000000E+00   1.000000E+00
   8.782000E-04   0.000000E+00   8.782000E+02   0.000000E+00   1.000000E+00
   8.897000E-04   0.000000E+00   8.897000E+02   0.000000E+00   1.000000E+00
   9.388000E-04   0.000000E+00   9.388000E+02   0.000000E+00   1.000000E+00
   1.028000E-03   0.000000E+00   1.028000E+03   0.000000E+00   1.000000E+00
   1.063000E-03   0.000000E+00   1.063000E+03   0.000000E+00   1.000000E+00
   1.113000E-03   0.000000E+00   1.113000E+03   0.000000E+00   1.000000E+00
   1.151000E-03   0.000000E+00   1.151000E+03   0.000000E+00   1.000000E+00
   1.194000E-03   0.000000E+00   1.194000E+03   0.000000E+00   1.000000E+00
   1.222000E-03   0.000000E+00   1.222000E+03   0.000000E+00   1.000000E+00
   1.273000E-03   0.000000E+00   1.273000E+03   0.000000E+00   1.000000E+00
   1.343000E-03   0.000000E+00   1.343000E+03   0.000000E+00   1.000000E+00
   1.354000E-03   0.000000E+00   1.354000E+03   0.000000E+00   1.000000E+00
   1.393000E-03   0.000000E+00   1.393000E+03   0.000000E+00   1.000000E+00
   1.401000E-03   0.000000E+00   1.401000E+03   0.000000E+00   1.000000E+00
   1.513000E-03   0.000000E+00   1.513000E+03   0.000000E+00   1.000000E+00
   1.616000E-03   0.000000E+00   1.616000E+03   0.000000E+00   1.000000E+00
   1.669000E-03   0.000000E+00   1.669000E+03   0.000000E+00   1.000000E+00
   1.696000E-03   0.000000E+00   1.696000E+03   0.000000E+00   1.000000E+00
   1.711000E-03   0.000000E+00   1.711000E+03   0.000000E+00   1.000000E+00
   1.751000E-03   0.000000E+00   1.751000E+03   0.000000E+00   1.000000E+00
   1.859000E-03   0.000000E+00   1.859000E+03   0.000000E+00   1.000000E+00
   1.969000E-03   0.000000E+00   1.969000E+03   0.000000E+00   1.000000E+00
   1.980000E-03   0.000000E+00   1.980000E+03   0.000000E+00   1.000000E+00
   1.995000E-03   0.000000E+00   1.995000E+03   0.000000E+00   1.000000E+00
   2.037000E-03   0.000000E+00   2.037000E+03   0.000000E+00   1.000000E+00
   2.059000E-03   0.000000E+00   2.059000E+03   0.000000E+00   1.000000E+00
   2.139000E-03   0.000000E+00   2.139000E+03   0.000000E+00   1.000000E+00
   2.250000E-03   0.000000E+00   2.250000E+03   0.000000E+00   1.000000E+00
   2.299000E-03   0.000000E+00   2.299000E+03   0.000000E+00   1.000000E+00
   2.343000E-03   0.000000E+00   2.343000E+03   0.000000E+00   1.000000E+00
   2.384000E-03   0.000000E+00   2.384000E+03   0.000000E+00   1.000000E+00
   2.401000E-03   0.000000E+00   2.401000E+03   0.000000E+00   1.000000E+00
   2.499000E-03   0.000000E+00   2.499000E+03   0.000000E+00   1.000000E+00
   2.523000E-03   0.000000E+00   2.523000E+03   0.000000E+00   1.000000E+00
   2.599000E-03   0.000000E+00   2.599000E+03   0.000000E+00   1.000000E+00
   2.660000E-03   0.000000E+00   2.660000E+03   0.000000E+00   1.000000E+00
   2.686000E-03   0.000000E+00   2.686000E+03   0.000000E+00   1.000000E+00
   2.809000E-03   0.000000E+00   2.809000E+03   0.000000E+00   1.000000E+00
   2.824000E-03   0.000000E+00   2.824000E+03   0.000000E+00   1.000000E+00
   2.919000E-03   0.000000E+00   2.919000E+03   0.000000E+00   1.000000E+00
   2.946000E-03   0.000000E+00   2.946000E+03   0.000000E+00   1.000000E+00
   2.978000E-03   0.000000E+00   2.978000E+03   0.000000E+00   1.000000E+00
   3.021000E-03   0.000000E+00   3.021000E+03   0.000000E+00   1.000000E+00
   3.269000E-03   0.000000E+00   3.269000E+03   0.000000E+00   1.000000E+00
   3.394000E-03   0.000000E+00   3.394000E+03   0.000000E+00   1.000000E+00
   3.411000E-03   0.000000E+00   3.411000E+03   0.000000E+00   1.000000E+00
   3.454000E-03   0.000000E+00   3.454000E+03   0.000000E+00   1.000000E+00
   3.472000E-03   0.000000E+00   3.472000E+03   0.000000E+00   1.000000E+00
   3.596000E-03   0.000000E+00   3.596000E+03   0.000000E+00   1.000000E+00
   3.700000E-03   0.000000E+00   3.700000E+03   0.000000E+00   1.000000E+00
   3.744000E-03   0.000000E+00   3.744000E+03   0.000000E+00   1.000000E+00
   3.815000E-03   0.000000E+00   3.815000E+03   0.000000E+00   1.000000E+00
   3.895000E-03   0.000000E+00   3.895000E+03   0.000000E+00   1.000000E+00
   3.950000E-03   0.000000E+00   3.950000E+03   0.000000E+00   1.000000E+00
   3.976000E-03   0.000000E+00   3.976000E+03   0.000000E+00   1.000000E+00
   4.066000E-03   0.000000E+00   4.066000E+03   0.000000E+00   1.000000E+00
   4.091000E-03   0.000000E+00   4.091000E+03   0.000000E+00   1.000000E+00
   4.324000E-03   0.000000E+00   4.324000E+03   0.000000E+00   1.000000E+00
   4.400000E-03   0.000000E+00   4.400000E+03   0.000000E+00   1.000000E+00
   4.434000E-03   0.000000E+00   4.434000E+03   0.000000E+00   1.000000E+00
   4.620000E-03   0.000000E+00   4.620000E+03   0.000000E+00   1.000000E+00
# reference:
#   author: M.MIZUMOTO
#   title: -NEUTRON RESONANCE PARAMETERS OF BA-135, BA-137 AND  BA-138.
#   journal: Jour: Jour. of Nuclear Science and Technology, Vol.25, p.757 (1988)
