# header: 
#   title: Th232(n,res) resonance parameter
#   source: EXFOR
#   user: Arjan Koning
#   date: 2025-12-01
#   format: YANDF-0.4
# exfor: 
#   author: Olsen
#   year: 1982
#   subentry: 109730042
#   X4 reaction: 90-TH-232(N,EL),,WID,,G
#   X4 source: IAEA-NDS C5 file, database version 2023-08-08
#   X4 link: https://nds.iaea.org/EXFOR/109730042
# target: 
#   Z: 90
#   A: 232
#   nuclide: Th232
# reaction: 
#   type: (n,res)
#   ENDF_MF: 402
#   ENDF_MT: 151
#   quantity: 
#     type: resonance parameter
#   datablock: 
#     columns: 5
#     entries: 61
##       E             dE             par           dpar       Normalization
##     [eV]           [eV]            []             []             []
   1.313400E-05   0.000000E+00   1.800000E-07   6.000000E-08   1.000000E+00
   3.699100E-05   0.000000E+00   8.100000E-07   3.300000E-07   1.000000E+00
   3.819900E-05   0.000000E+00   4.900000E-07   3.500000E-07   1.000000E+00
   4.103200E-05   0.000000E+00   6.300000E-07   3.900000E-07   1.000000E+00
   4.705400E-05   0.000000E+00   1.650000E-06   4.800000E-07   1.000000E+00
   5.877600E-05   0.000000E+00   8.800000E-06   8.000000E-07   1.000000E+00
   6.451000E-05   0.000000E+00   1.000000E-06   7.000000E-07   1.000000E+00
   9.017401E-05   0.000000E+00   4.700000E-06   1.800000E-06   1.000000E+00
   9.807000E-05   0.000000E+00   3.200000E-06   2.000000E-06   1.000000E+00
   1.036600E-04   0.000000E+00   5.200000E-06   2.100000E-06   1.000000E+00
   1.282000E-04   0.000000E+00   7.300000E-05   5.000000E-06   1.000000E+00
   1.458600E-04   0.000000E+00   8.700000E-05   5.000000E-06   1.000000E+00
   1.480500E-04   0.000000E+00   1.000000E-05   4.000000E-06   1.000000E+00
   1.671700E-04   0.000000E+00   1.900000E-05   4.000000E-06   1.000000E+00
   1.789600E-04   0.000000E+00   3.600000E-05   8.000000E-06   1.000000E+00
   2.027200E-04   0.000000E+00   3.700000E-05   1.000000E-05   1.000000E+00
   2.110000E-04   0.000000E+00   1.500000E-05   8.000000E-06   1.000000E+00
   2.195200E-04   0.000000E+00   5.300000E-05   8.000000E-06   1.000000E+00
   2.905800E-04   0.000000E+00   7.300000E-05   2.000000E-05   1.000000E+00
   2.998400E-04   0.000000E+00   4.100000E-05   1.600000E-05   1.000000E+00
   3.026800E-04   0.000000E+00   1.560000E-04   1.800000E-05   1.000000E+00
   3.094700E-04   0.000000E+00   5.300000E-05   2.200000E-05   1.000000E+00
   3.218300E-04   0.000000E+00   3.300000E-05   1.700000E-05   1.000000E+00
   3.383400E-04   0.000000E+00   5.600000E-05   2.400000E-05   1.000000E+00
   3.613500E-04   0.000000E+00   8.700000E-05   2.500000E-05   1.000000E+00
   3.807200E-04   0.000000E+00   1.480000E-04   3.400000E-05   1.000000E+00
   4.029200E-04   0.000000E+00   1.200000E-04   4.000000E-05   1.000000E+00
   4.118700E-04   0.000000E+00   2.400000E-04   4.000000E-05   1.000000E+00
   4.592000E-04   0.000000E+00   7.000000E-05   3.000000E-05   1.000000E+00
   4.664100E-04   0.000000E+00   1.200000E-04   6.000000E-05   1.000000E+00
   5.335800E-04   0.000000E+00   2.000000E-04   6.000000E-05   1.000000E+00
   5.358700E-04   0.000000E+00   3.900000E-04   7.000000E-05   1.000000E+00
   5.405600E-04   0.000000E+00   1.090000E-03   1.000000E-04   1.000000E+00
   5.944300E-04   0.000000E+00   1.300000E-04   6.000000E-05   1.000000E+00
   6.447100E-04   0.000000E+00   1.600000E-04   7.000000E-05   1.000000E+00
   7.047700E-04   0.000000E+00   2.400000E-04   1.100000E-04   1.000000E+00
   8.670300E-04   0.000000E+00   6.700000E-04   1.900000E-04   1.000000E+00
   8.853900E-04   0.000000E+00   3.800000E-04   1.600000E-04   1.000000E+00
   9.194000E-04   0.000000E+00   4.700000E-04   1.700000E-04   1.000000E+00
   9.748300E-04   0.000000E+00   2.400000E-04   1.600000E-04   1.000000E+00
   9.968000E-04   0.000000E+00   3.100000E-04   2.400000E-04   1.000000E+00
   1.044300E-03   0.000000E+00   5.600000E-04   2.500000E-04   1.000000E+00
   1.117100E-03   0.000000E+00   1.120000E-03   4.200000E-04   1.000000E+00
   1.133200E-03   0.000000E+00   4.200000E-04   2.500000E-04   1.000000E+00
   1.176900E-03   0.000000E+00   5.400000E-04   2.800000E-04   1.000000E+00
   1.218300E-03   0.000000E+00   4.900000E-04   2.700000E-04   1.000000E+00
   1.224900E-03   0.000000E+00   4.500000E-04   2.600000E-04   1.000000E+00
   1.234700E-03   0.000000E+00   1.070000E-03   3.200000E-04   1.000000E+00
   1.261700E-03   0.000000E+00   9.600000E-04   3.600000E-04   1.000000E+00
   1.288500E-03   0.000000E+00   6.200000E-04   3.000000E-04   1.000000E+00
   1.346700E-03   0.000000E+00   9.900000E-04   3.400000E-04   1.000000E+00
   1.418400E-03   0.000000E+00   4.500000E-04   3.500000E-04   1.000000E+00
   1.442800E-03   0.000000E+00   1.000000E-03   5.000000E-04   1.000000E+00
   1.516500E-03   0.000000E+00   1.700000E-03   3.000000E-04   1.000000E+00
   1.612200E-03   0.000000E+00   9.000000E-04   6.000000E-04   1.000000E+00
   1.624800E-03   0.000000E+00   1.300000E-03   4.000000E-04   1.000000E+00
   1.726800E-03   0.000000E+00   1.900000E-03   8.000000E-04   1.000000E+00
   1.731900E-03   0.000000E+00   1.500000E-03   7.000000E-04   1.000000E+00
   1.837500E-03   0.000000E+00   1.300000E-03   8.000000E-04   1.000000E+00
   1.890200E-03   0.000000E+00   1.100000E-03   8.000000E-04   1.000000E+00
   1.898400E-03   0.000000E+00   5.900000E-03   9.000000E-04   1.000000E+00
# reference:
#   author: D.K.Olsen,R.W.Ingle,J.L.Portney
#   title: Measurement and Resonance Analysis of the 232Th  Total Neutron Cross Section
#   journal: Jour: Nuclear Science and Engineering, Vol.82, p.289 (1982)
