# header: 
#   title: Th232(n,res) resonance parameter
#   source: EXFOR
#   user: Arjan Koning
#   date: 2025-12-18
#   format: YANDF-0.4
# exfor: 
#   author: Kobayashi
#   year: 1988
#   subentry: 221230022
#   X4 reaction: 90-TH-232(N,EL),,WID
#   X4 source: IAEA-NDS C5 file, database version 2023-08-08
#   X4 link: https://nds.iaea.org/EXFOR/221230022
# target: 
#   Z: 90
#   A: 232
#   nuclide: Th232
# reaction: 
#   type: (n,res)
#   ENDF_MF: 402
#   ENDF_MT: 151
#   quantity: 
#     type: resonance parameter
#   datablock: 
#     columns: 5
#     entries: 21
##       E             dE             par           dpar       Normalization
##     [eV]           [eV]            []             []             []
   2.180000E-05   0.000000E+00   2.090000E-03   3.000000E-05   1.000000E+00
   2.350000E-05   0.000000E+00   3.880000E-03   1.800000E-04   1.000000E+00
   5.950000E-05   0.000000E+00   3.830000E-03   2.100000E-04   1.000000E+00
   6.920000E-05   0.000000E+00   4.260000E-02   1.300000E-03   1.000000E+00
   1.130000E-04   0.000000E+00   1.390000E-02   1.300000E-03   1.000000E+00
   1.210000E-04   0.000000E+00   2.490000E-02   9.000000E-04   1.000000E+00
   1.290000E-04   0.000000E+00   3.380000E-03   7.500000E-04   1.000000E+00
   1.540000E-04   0.000000E+00   2.050000E-04   4.400000E-05   1.000000E+00
   1.700000E-04   0.000000E+00   6.190000E-02   2.800000E-03   1.000000E+00
   1.930000E-04   0.000000E+00   1.740000E-02   1.800000E-03   1.000000E+00
   1.990000E-04   0.000000E+00   1.020000E-02   1.500000E-03   1.000000E+00
   2.210000E-04   0.000000E+00   2.640000E-02   3.300000E-03   1.000000E+00
   2.510000E-04   0.000000E+00   2.990000E-02   3.900000E-03   1.000000E+00
   2.630000E-04   0.000000E+00   2.260000E-02   4.000000E-03   1.000000E+00
   2.860000E-04   0.000000E+00   2.980000E-02   5.000000E-03   1.000000E+00
   3.050000E-04   0.000000E+00   2.330000E-02   4.500000E-03   1.000000E+00
   3.290000E-04   0.000000E+00   7.310000E-02   9.600000E-03   1.000000E+00
   3.420000E-04   0.000000E+00   3.550000E-02   7.000000E-03   1.000000E+00
   3.650000E-04   0.000000E+00   2.300000E-02   9.300000E-03   1.000000E+00
   3.690000E-04   0.000000E+00   2.490000E-02   1.020000E-02   1.000000E+00
   4.010000E-04   0.000000E+00   1.210000E-02   5.200000E-03   1.000000E+00
# reference:
#   author: K.KOBAYASHI,Y.FUJITA,I.KIMURA
#   title: -MEASUREMENT OF RESONANCE PARAMETERS OF 232-TH AND  THEIR INTEGRAL CHECK THROUGH THE RESONANCE INTEGRAL.
#   journal: Jour: Annals of Nuclear Energy, Vol.15, p.381 (1988)
