# header: 
#   title: Ce142(n,res) resonance parameter
#   source: EXFOR
#   user: Arjan Koning
#   date: 2025-12-18
#   format: YANDF-0.4
# exfor: 
#   author: Ohkubo
#   year: 1993
#   subentry: 208190071
#   X4 reaction: 58-CE-142(N,0),,EN
#   X4 source: IAEA-NDS C5 file, database version 2023-08-08
#   X4 link: https://nds.iaea.org/EXFOR/208190071
# target: 
#   Z: 58
#   A: 142
#   nuclide: Ce142
# reaction: 
#   type: (n,res)
#   ENDF_MF: 402
#   ENDF_MT: 151
#   quantity: 
#     type: resonance parameter
#   datablock: 
#     columns: 5
#     entries: 49
##       E             dE             par           dpar       Normalization
##     [eV]           [eV]            []             []             []
   1.152700E-03   8.000000E-07   1.152700E+03   8.000000E-01   1.000000E+00
   1.277000E-03   9.000000E-07   1.277000E+03   9.000000E-01   1.000000E+00
   1.742000E-03   1.500000E-06   1.742000E+03   1.500000E+00   1.000000E+00
   2.793000E-03   2.900000E-06   2.793000E+03   2.900000E+00   1.000000E+00
   2.941000E-03   3.200000E-06   2.941000E+03   3.200000E+00   1.000000E+00
   2.966000E-03   3.200000E-06   2.966000E+03   3.200000E+00   1.000000E+00
   3.835000E-03   4.700000E-06   3.835000E+03   4.700000E+00   1.000000E+00
   4.295000E-03   5.600000E-06   4.295000E+03   5.600000E+00   1.000000E+00
   4.525000E-03   6.100000E-06   4.525000E+03   6.100000E+00   1.000000E+00
   5.190000E-03   7.500000E-06   5.190000E+03   7.500000E+00   1.000000E+00
   5.623000E-03   8.399999E-06   5.623000E+03   8.400000E+00   1.000000E+00
   5.816000E-03   8.900000E-06   5.816000E+03   8.900000E+00   1.000000E+00
   5.966000E-03   9.200000E-06   5.966000E+03   9.200000E+00   1.000000E+00
   6.429000E-03   1.000000E-05   6.429000E+03   1.000000E+01   1.000000E+00
   7.478000E-03   1.300000E-05   7.478000E+03   1.300000E+01   1.000000E+00
   8.149000E-03   1.500000E-05   8.149000E+03   1.500000E+01   1.000000E+00
   8.350000E-03   1.500000E-05   8.350000E+03   1.500000E+01   1.000000E+00
   8.401000E-03   1.500000E-05   8.401000E+03   1.500000E+01   1.000000E+00
   8.858000E-03   1.700000E-05   8.858000E+03   1.700000E+01   1.000000E+00
   9.433000E-03   1.800000E-05   9.433000E+03   1.800000E+01   1.000000E+00
   9.647000E-03   1.900000E-05   9.647000E+03   1.900000E+01   1.000000E+00
   1.089100E-02   2.300000E-05   1.089100E+04   2.300000E+01   1.000000E+00
   1.091500E-02   2.300000E-05   1.091500E+04   2.300000E+01   1.000000E+00
   1.117700E-02   2.400000E-05   1.117700E+04   2.400000E+01   1.000000E+00
   1.131800E-02   2.400000E-05   1.131800E+04   2.400000E+01   1.000000E+00
   1.197000E-02   2.600000E-05   1.197000E+04   2.600000E+01   1.000000E+00
   1.225500E-02   2.700000E-05   1.225500E+04   2.700000E+01   1.000000E+00
   1.248600E-02   2.800000E-05   1.248600E+04   2.800000E+01   1.000000E+00
   1.277500E-02   2.900000E-05   1.277500E+04   2.900000E+01   1.000000E+00
   1.397600E-02   3.300000E-05   1.397600E+04   3.300000E+01   1.000000E+00
   1.522500E-02   3.700000E-05   1.522500E+04   3.700000E+01   1.000000E+00
   1.663800E-02   4.300000E-05   1.663800E+04   4.300000E+01   1.000000E+00
   1.729800E-02   4.500000E-05   1.729800E+04   4.500000E+01   1.000000E+00
   1.782200E-02   4.800000E-05   1.782200E+04   4.800000E+01   1.000000E+00
   1.941400E-02   5.400000E-05   1.941400E+04   5.400000E+01   1.000000E+00
   2.057600E-02   5.900000E-05   2.057600E+04   5.900000E+01   1.000000E+00
   2.117300E-02   6.200000E-05   2.117300E+04   6.200000E+01   1.000000E+00
   2.260000E-02   6.800000E-05   2.260000E+04   6.800000E+01   1.000000E+00
   2.319000E-02   7.100000E-05   2.319000E+04   7.100000E+01   1.000000E+00
   2.474000E-02   7.800000E-05   2.474000E+04   7.800000E+01   1.000000E+00
   2.536000E-02   8.100000E-05   2.536000E+04   8.100000E+01   1.000000E+00
   2.930000E-02   1.000000E-04   2.930000E+04   1.000000E+02   1.000000E+00
   3.088000E-02   1.080000E-04   3.088000E+04   1.080000E+02   1.000000E+00
   3.816000E-02   1.490000E-04   3.816000E+04   1.490000E+02   1.000000E+00
   3.889000E-02   1.530000E-04   3.889000E+04   1.530000E+02   1.000000E+00
   3.964000E-02   1.580000E-04   3.964000E+04   1.580000E+02   1.000000E+00
   4.272500E-02   1.760000E-04   4.272500E+04   1.760000E+02   1.000000E+00
   4.336500E-02   1.800000E-04   4.336500E+04   1.800000E+02   1.000000E+00
   4.924500E-02   2.180000E-04   4.924500E+04   2.180000E+02   1.000000E+00
# reference:
#   author: M.Ohkubo,M.Mizumoto,Y.Nakajima
#   title: Neutron transmission measurements on 121Sb, 123Sb, 140Ce and 142Ce in the resonance region
#   journal: Rept: JAERI-M Reports, No.93-012 (1993)
