# header: 
#   title: U238(n,res) resonance parameter
#   source: EXFOR
#   user: Arjan Koning
#   date: 2025-08-01
#   format: YANDF-0.2
# exfor: 
#   author: Olsen
#   year: 1979
#   subentry: 107140032
#   X4 reaction: 92-U-238(N,EL),,WID
#   X4 source: IAEA-NDS C5 file, database version 2023-08-08
#   X4 link: https://nds.iaea.org/EXFOR/107140032
# target: 
#   Z: 92
#   A: 238
#   nuclide: U238
# reaction: 
#   type: (n,res)
#   ENDF_MF: 402
#   ENDF_MT: 151
#   quantity: 
#     type: resonance parameter
#   datablock: 
#     columns: 5
#     entries: 60
##       E             dE             par           dpar       Normalization
##     [eV]           [eV]            []             []             []
   4.404000E-06   0.000000E+00   1.100000E-07   1.023900E-08   1.000000E+00
   1.023600E-05   0.000000E+00   1.690000E-06   6.035300E-08   1.000000E+00
   1.130900E-05   0.000000E+00   3.900000E-07   3.099700E-08   1.000000E+00
   1.952300E-05   0.000000E+00   1.460000E-06   7.584600E-08   1.000000E+00
   4.516600E-05   0.000000E+00   2.100000E-06   5.017600E-07   1.000000E+00
   4.962600E-05   0.000000E+00   1.200000E-06   6.004800E-07   1.000000E+00
   6.350500E-05   0.000000E+00   9.900000E-06   7.274600E-07   1.000000E+00
   8.368400E-05   0.000000E+00   1.060000E-05   1.514900E-06   1.000000E+00
   9.309700E-05   0.000000E+00   6.000000E-06   1.405100E-06   1.000000E+00
   1.112100E-04   0.000000E+00   7.500000E-06   3.803000E-06   1.000000E+00
   1.249800E-04   0.000000E+00   2.000000E-05   5.016000E-06   1.000000E+00
   1.332900E-04   0.000000E+00   8.000000E-06   4.003200E-06   1.000000E+00
   1.524200E-04   0.000000E+00   5.500000E-05   6.100000E-06   1.000000E+00
   1.589500E-04   0.000000E+00   1.800000E-05   6.010800E-06   1.000000E+00
   1.731900E-04   0.000000E+00   5.000000E-05   6.082800E-06   1.000000E+00
   2.007100E-04   0.000000E+00   5.100000E-05   1.403700E-05   1.000000E+00
   2.031100E-04   0.000000E+00   3.400000E-05   1.002300E-05   1.000000E+00
   2.148500E-04   0.000000E+00   6.200000E-05   2.103700E-05   1.000000E+00
   2.183200E-04   0.000000E+00   2.700000E-05   1.501000E-05   1.000000E+00
   2.427100E-04   0.000000E+00   1.940000E-04   2.431200E-05   1.000000E+00
   2.538900E-04   0.000000E+00   1.040000E-04   1.514400E-05   1.000000E+00
   2.572400E-04   0.000000E+00   1.900000E-05   1.300600E-05   1.000000E+00
   2.639300E-04   0.000000E+00   2.760000E-04   2.462700E-05   1.000000E+00
   2.751100E-04   0.000000E+00   2.150000E-04   4.719600E-05   1.000000E+00
   2.824300E-04   0.000000E+00   1.140000E-04   2.013000E-05   1.000000E+00
   3.228600E-04   0.000000E+00   3.600000E-05   1.801400E-05   1.000000E+00
   3.319700E-04   0.000000E+00   4.900000E-05   2.002400E-05   1.000000E+00
   3.372500E-04   0.000000E+00   1.090000E-04   2.111300E-05   1.000000E+00
   3.518600E-04   0.000000E+00   2.400000E-04   6.318300E-05   1.000000E+00
   4.082100E-04   0.000000E+00   7.900000E-05   2.704600E-05   1.000000E+00
   4.397400E-04   0.000000E+00   2.850000E-04   3.743600E-05   1.000000E+00
   4.483600E-04   0.000000E+00   4.200000E-05   3.201100E-05   1.000000E+00
   4.540500E-04   0.000000E+00   4.150000E-04   4.183200E-05   1.000000E+00
   4.671500E-04   0.000000E+00   5.700000E-05   3.601800E-05   1.000000E+00
   4.852800E-04   0.000000E+00   1.350000E-04   3.909300E-05   1.000000E+00
   4.888800E-04   0.000000E+00   8.300000E-04   7.194100E-05   1.000000E+00
   4.988700E-04   0.000000E+00   1.000000E-04   4.005000E-05   1.000000E+00
   5.233300E-04   0.000000E+00   3.000000E-04   6.067100E-05   1.000000E+00
   5.424600E-04   0.000000E+00   1.500000E-04   5.020200E-05   1.000000E+00
   5.509900E-04   0.000000E+00   7.000000E-05   5.004400E-05   1.000000E+00
   5.562600E-04   0.000000E+00   9.100000E-04   8.453000E-05   1.000000E+00
   5.844600E-04   0.000000E+00   1.300000E-04   6.012700E-05   1.000000E+00
   6.067200E-04   0.000000E+00   2.500000E-04   7.040100E-05   1.000000E+00
   6.157500E-04   0.000000E+00   1.500000E-04   6.016900E-05   1.000000E+00
   6.242000E-04   0.000000E+00   8.200000E-04   9.330100E-05   1.000000E+00
   6.332900E-04   0.000000E+00   1.100000E-04   7.007800E-05   1.000000E+00
   6.684000E-04   0.000000E+00   2.100000E-04   1.002000E-04   1.000000E+00
   6.777500E-04   0.000000E+00   6.600000E-04   1.019400E-04   1.000000E+00
   6.980700E-04   0.000000E+00   3.500000E-04   1.005500E-04   1.000000E+00
   7.106000E-04   0.000000E+00   1.100000E-03   1.731700E-04   1.000000E+00
   7.137900E-04   0.000000E+00   1.800000E-04   9.016200E-05   1.000000E+00
   7.324700E-04   0.000000E+00   1.910000E-03   1.984500E-04   1.000000E+00
   7.431400E-04   0.000000E+00   3.700000E-04   1.006100E-04   1.000000E+00
   7.562400E-04   0.000000E+00   5.500000E-04   1.013500E-04   1.000000E+00
   7.793100E-04   0.000000E+00   2.090000E-03   2.000800E-04   1.000000E+00
   7.858200E-04   0.000000E+00   2.700000E-04   1.103000E-04   1.000000E+00
   7.873400E-04   0.000000E+00   4.100000E-04   1.206300E-04   1.000000E+00
   8.081600E-04   0.000000E+00   4.400000E-04   1.008700E-04   1.000000E+00
   8.287600E-04   0.000000E+00   2.300000E-04   1.102200E-04   1.000000E+00
   8.466500E-04   0.000000E+00   8.700000E-04   1.325900E-04   1.000000E+00
# reference:
#   author: D.K.Olsen,G.De Saussure,R.B.Perez,F.C.Difilippo, R.W.Ingle,H.Weaver
#   title: Measurement and Resonance Analysis of Neutron Transmission Through Uranium-238
#   journal: Jour: Nuclear Science and Engineering, Vol.69, p.202 (1979)
