# header: 
#   title: U238(n,res) resonance parameter
#   source: EXFOR
#   user: Arjan Koning
#   date: 2025-08-01
#   format: YANDF-0.2
# exfor: 
#   author: Rosen
#   year: 1960
#   subentry: 124600021
#   X4 reaction: 92-U-238(N,0),,EN
#   X4 source: IAEA-NDS C5 file, database version 2023-08-08
#   X4 link: https://nds.iaea.org/EXFOR/124600021
# target: 
#   Z: 92
#   A: 238
#   nuclide: U238
# reaction: 
#   type: (n,res)
#   ENDF_MF: 402
#   ENDF_MT: 151
#   quantity: 
#     type: resonance parameter
#   datablock: 
#     columns: 5
#     entries: 48
##       E             dE             par           dpar       Normalization
##     [eV]           [eV]            []             []             []
   1.028000E-04   1.000000E-07   1.028000E+02   1.000000E-01   1.000000E+00
   1.170000E-04   1.000000E-07   1.170000E+02   1.000000E-01   1.000000E+00
   1.459000E-04   1.000000E-07   1.459000E+02   1.000000E-01   1.000000E+00
   1.657000E-04   2.000000E-07   1.657000E+02   2.000000E-01   1.000000E+00
   1.900000E-04   2.000000E-07   1.900000E+02   2.000000E-01   1.000000E+00
   2.091000E-04   2.000000E-07   2.091000E+02   2.000000E-01   1.000000E+00
   2.380000E-04   3.000000E-07   2.380000E+02   3.000000E-01   1.000000E+00
   2.640000E-04   3.000000E-07   2.640000E+02   3.000000E-01   1.000000E+00
   2.745000E-04   4.000000E-07   2.745000E+02   4.000000E-01   1.000000E+00
   2.920000E-04   4.000000E-07   2.920000E+02   4.000000E-01   1.000000E+00
   3.125000E-04   4.000000E-07   3.125000E+02   4.000000E-01   1.000000E+00
   3.490000E-04   5.000000E-07   3.490000E+02   5.000000E-01   1.000000E+00
   3.780000E-04   6.000000E-07   3.780000E+02   6.000000E-01   1.000000E+00
   3.990000E-04   6.000000E-07   3.990000E+02   6.000000E-01   1.000000E+00
   4.120000E-04   7.000000E-07   4.120000E+02   7.000000E-01   1.000000E+00
   4.360000E-04   7.000000E-07   4.360000E+02   7.000000E-01   1.000000E+00
   4.560000E-04   8.000000E-07   4.560000E+02   8.000000E-01   1.000000E+00
   4.650000E-04   8.000000E-07   4.650000E+02   8.000000E-01   1.000000E+00
   4.800000E-04   8.000000E-07   4.800000E+02   8.000000E-01   1.000000E+00
   4.910000E-04   9.000000E-07   4.910000E+02   9.000000E-01   1.000000E+00
   5.200000E-04   9.000000E-07   5.200000E+02   9.000000E-01   1.000000E+00
   5.370000E-04   1.000000E-06   5.370000E+02   1.000000E+00   1.000000E+00
   5.580000E-04   1.000000E-06   5.580000E+02   1.000000E+00   1.000000E+00
   5.820000E-04   1.100000E-06   5.820000E+02   1.100000E+00   1.000000E+00
   5.970000E-04   1.100000E-06   5.970000E+02   1.100000E+00   1.000000E+00
   6.060000E-04   1.200000E-06   6.060000E+02   1.200000E+00   1.000000E+00
   6.220000E-04   1.200000E-06   6.220000E+02   1.200000E+00   1.000000E+00
   6.300000E-04   1.200000E-06   6.300000E+02   1.200000E+00   1.000000E+00
   6.630000E-04   1.300000E-06   6.630000E+02   1.300000E+00   1.000000E+00
   6.810000E-04   1.400000E-06   6.810000E+02   1.400000E+00   1.000000E+00
   6.960000E-04   1.400000E-06   6.960000E+02   1.400000E+00   1.000000E+00
   7.110000E-04   1.500000E-06   7.110000E+02   1.500000E+00   1.000000E+00
   7.240000E-04   1.500000E-06   7.240000E+02   1.500000E+00   1.000000E+00
   7.330000E-04   1.600000E-06   7.330000E+02   1.600000E+00   1.000000E+00
   7.670000E-04   1.700000E-06   7.670000E+02   1.700000E+00   1.000000E+00
   7.830000E-04   1.700000E-06   7.830000E+02   1.700000E+00   1.000000E+00
   7.930000E-04   1.700000E-06   7.930000E+02   1.700000E+00   1.000000E+00
   8.260000E-04   1.900000E-06   8.260000E+02   1.900000E+00   1.000000E+00
   8.560000E-04   2.000000E-06   8.560000E+02   2.000000E+00   1.000000E+00
   8.600000E-04   2.000000E-06   8.600000E+02   2.000000E+00   1.000000E+00
   8.690000E-04   2.000000E-06   8.690000E+02   2.000000E+00   1.000000E+00
   8.980000E-04   2.100000E-06   8.980000E+02   2.100000E+00   1.000000E+00
   9.110000E-04   2.100000E-06   9.110000E+02   2.100000E+00   1.000000E+00
   9.300000E-04   2.200000E-06   9.300000E+02   2.200000E+00   1.000000E+00
   9.420000E-04   2.300000E-06   9.420000E+02   2.300000E+00   1.000000E+00
   9.620000E-04   2.300000E-06   9.620000E+02   2.300000E+00   1.000000E+00
   9.850000E-04   2.400000E-06   9.850000E+02   2.400000E+00   1.000000E+00
   9.970000E-04   2.500000E-06   9.970000E+02   2.500000E+00   1.000000E+00
# reference:
#   author: J.L.Rosen,J.S.Desjardins,J.Rainwater,W.W.Havens Jr
#   title: Slow neutron resonance spectroscopy. I. U238.
#   journal: Jour: Physical Review, Vol.118, p.687 (1960)
