# header: 
#   title: U238(n,res) resonance parameter
#   source: EXFOR
#   user: Arjan Koning
#   date: 2025-12-01
#   format: YANDF-0.4
# exfor: 
#   author: Olsen
#   year: 1979
#   subentry: 107140022
#   X4 reaction: 92-U-238(N,EL),,WID,,G
#   X4 source: IAEA-NDS C5 file, database version 2023-08-08
#   X4 link: https://nds.iaea.org/EXFOR/107140022
# target: 
#   Z: 92
#   A: 238
#   nuclide: U238
# reaction: 
#   type: (n,res)
#   ENDF_MF: 402
#   ENDF_MT: 151
#   quantity: 
#     type: resonance parameter
#   datablock: 
#     columns: 5
#     entries: 39
##       E             dE             par           dpar       Normalization
##     [eV]           [eV]            []             []             []
   6.672000E-06   0.000000E+00   1.480000E-03   3.124400E-05   1.000000E+00
   2.086400E-05   0.000000E+00   1.016000E-02   2.054000E-04   1.000000E+00
   3.667100E-05   0.000000E+00   3.376000E-02   6.788200E-04   1.000000E+00
   6.601500E-05   0.000000E+00   2.437000E-02   5.044400E-04   1.000000E+00
   8.072900E-05   0.000000E+00   1.820000E-03   4.716900E-05   1.000000E+00
   1.025400E-04   0.000000E+00   7.090001E-02   1.455900E-03   1.000000E+00
   1.168700E-04   0.000000E+00   2.514000E-02   5.529100E-04   1.000000E+00
   1.456300E-04   0.000000E+00   9.000000E-04   3.498600E-05   1.000000E+00
   1.652600E-04   0.000000E+00   3.350000E-03   1.122000E-04   1.000000E+00
   1.896400E-04   0.000000E+00   1.709000E-01   3.534500E-03   1.000000E+00
   2.084700E-04   0.000000E+00   4.990000E-02   1.116200E-03   1.000000E+00
   2.373400E-04   0.000000E+00   2.627000E-02   6.426100E-04   1.000000E+00
   2.736200E-04   0.000000E+00   2.486000E-02   6.773500E-04   1.000000E+00
   2.909600E-04   0.000000E+00   1.655000E-02   4.890400E-04   1.000000E+00
   3.112800E-04   0.000000E+00   1.040000E-03   7.302500E-05   1.000000E+00
   3.477500E-04   0.000000E+00   8.000001E-02   1.835800E-03   1.000000E+00
   3.768900E-04   0.000000E+00   1.100000E-03   8.297000E-05   1.000000E+00
   3.975800E-04   0.000000E+00   6.050000E-03   3.050300E-04   1.000000E+00
   4.102100E-04   0.000000E+00   1.956000E-02   6.913300E-04   1.000000E+00
   4.340400E-04   0.000000E+00   9.530000E-03   4.340800E-04   1.000000E+00
   4.631400E-04   0.000000E+00   5.460000E-03   2.912500E-04   1.000000E+00
   4.784000E-04   0.000000E+00   4.010000E-03   2.247900E-04   1.000000E+00
   5.183300E-04   0.000000E+00   4.900000E-02   1.836000E-03   1.000000E+00
   5.352800E-04   0.000000E+00   4.370000E-02   1.648900E-03   1.000000E+00
   5.800800E-04   0.000000E+00   3.960000E-02   1.552850E-03   1.000000E+00
   5.950100E-04   0.000000E+00   8.690000E-02   3.007700E-03   1.000000E+00
   6.199500E-04   0.000000E+00   2.931000E-02   1.331600E-03   1.000000E+00
   6.285300E-04   0.000000E+00   6.110000E-03   4.219000E-04   1.000000E+00
   6.611400E-04   0.000000E+00   1.252000E-01   4.303200E-03   1.000000E+00
   6.930500E-04   0.000000E+00   4.030000E-02   1.703400E-03   1.000000E+00
   7.082700E-04   0.000000E+00   2.044000E-02   1.173000E-03   1.000000E+00
   7.215900E-04   0.000000E+00   1.680000E-03   1.869200E-04   1.000000E+00
   7.301500E-04   0.000000E+00   1.030000E-03   1.239100E-04   1.000000E+00
   7.650500E-04   0.000000E+00   7.900000E-03   5.533300E-04   1.000000E+00
   7.908200E-04   0.000000E+00   6.900000E-03   5.411600E-04   1.000000E+00
   8.215600E-04   0.000000E+00   6.750000E-02   2.776800E-03   1.000000E+00
   8.509900E-04   0.000000E+00   6.350000E-02   2.762100E-03   1.000000E+00
   8.560800E-04   0.000000E+00   8.980001E-02   3.542300E-03   1.000000E+00
   8.664200E-04   0.000000E+00   5.230000E-03   5.335900E-04   1.000000E+00
# reference:
#   author: D.K.Olsen,G.De Saussure,R.B.Perez,F.C.Difilippo, R.W.Ingle,H.Weaver
#   title: Measurement and Resonance Analysis of Neutron Transmission Through Uranium-238
#   journal: Jour: Nuclear Science and Engineering, Vol.69, p.202 (1979)
