# header: 
#   title: U238(n,res) resonance parameter
#   source: EXFOR
#   user: Arjan Koning
#   date: 2025-12-01
#   format: YANDF-0.4
# exfor: 
#   author: Olsen
#   year: 1979
#   subentry: 107140021
#   X4 reaction: 92-U-238(N,0),,EN
#   X4 source: IAEA-NDS C5 file, database version 2023-08-08
#   X4 link: https://nds.iaea.org/EXFOR/107140021
# target: 
#   Z: 92
#   A: 238
#   nuclide: U238
# reaction: 
#   type: (n,res)
#   ENDF_MF: 402
#   ENDF_MT: 151
#   quantity: 
#     type: resonance parameter
#   datablock: 
#     columns: 5
#     entries: 39
##       E             dE             par           dpar       Normalization
##     [eV]           [eV]            []             []             []
   6.672000E-06   1.492000E-09   6.672000E+00   1.492000E-03   1.000000E+00
   2.086400E-05   4.771300E-09   2.086400E+01   4.771300E-03   1.000000E+00
   3.667100E-05   8.260600E-09   3.667100E+01   8.260600E-03   1.000000E+00
   6.601500E-05   1.479524E-08   6.601500E+01   1.479524E-02   1.000000E+00
   8.072900E-05   1.816201E-08   8.072900E+01   1.816201E-02   1.000000E+00
   1.025400E-04   2.501445E-08   1.025400E+02   2.501445E-02   1.000000E+00
   1.168700E-04   2.798088E-08   1.168700E+02   2.798088E-02   1.000000E+00
   1.456300E-04   3.406471E-08   1.456300E+02   3.406471E-02   1.000000E+00
   1.652600E-04   3.828241E-08   1.652600E+02   3.828241E-02   1.000000E+00
   1.896400E-04   4.356795E-08   1.896400E+02   4.356795E-02   1.000000E+00
   2.084700E-04   4.767585E-08   2.084700E+02   4.767585E-02   1.000000E+00
   2.373400E-04   5.400475E-08   2.373400E+02   5.400475E-02   1.000000E+00
   2.736200E-04   6.199512E-08   2.736200E+02   6.199512E-02   1.000000E+00
   2.909600E-04   6.582466E-08   2.909600E+02   6.582466E-02   1.000000E+00
   3.112800E-04   7.242072E-08   3.112800E+02   7.242072E-02   1.000000E+00
   3.477500E-04   7.839963E-08   3.477500E+02   7.839963E-02   1.000000E+00
   3.768900E-04   8.661583E-08   3.768900E+02   8.661584E-02   1.000000E+00
   3.975800E-04   8.946223E-08   3.975800E+02   8.946223E-02   1.000000E+00
   4.102100E-04   9.226923E-08   4.102100E+02   9.226923E-02   1.000000E+00
   4.340400E-04   9.756812E-08   4.340400E+02   9.756812E-02   1.000000E+00
   4.631400E-04   1.054748E-07   4.631400E+02   1.054748E-01   1.000000E+00
   4.784000E-04   1.088271E-07   4.784000E+02   1.088271E-01   1.000000E+00
   5.183300E-04   1.163327E-07   5.183300E+02   1.163327E-01   1.000000E+00
   5.352800E-04   1.201093E-07   5.352800E+02   1.201093E-01   1.000000E+00
   5.800800E-04   1.300947E-07   5.800800E+02   1.300947E-01   1.000000E+00
   5.950100E-04   1.334236E-07   5.950100E+02   1.334236E-01   1.000000E+00
   6.199500E-04   1.400603E-07   6.199500E+02   1.400603E-01   1.000000E+00
   6.285300E-04   1.419595E-07   6.285300E+02   1.419595E-01   1.000000E+00
   6.611400E-04   1.481732E-07   6.611400E+02   1.481732E-01   1.000000E+00
   6.930500E-04   1.562559E-07   6.930500E+02   1.562559E-01   1.000000E+00
   7.082700E-04   1.596318E-07   7.082700E+02   1.596318E-01   1.000000E+00
   7.215900E-04   1.721471E-07   7.215900E+02   1.721471E-01   1.000000E+00
   7.301500E-04   1.818129E-07   7.301500E+02   1.818129E-01   1.000000E+00
   7.650500E-04   1.736809E-07   7.650500E+02   1.736809E-01   1.000000E+00
   7.908200E-04   1.793595E-07   7.908200E+02   1.793595E-01   1.000000E+00
   8.215600E-04   1.847919E-07   8.215600E+02   1.847919E-01   1.000000E+00
   8.509900E-04   1.913353E-07   8.509900E+02   1.913353E-01   1.000000E+00
   8.560800E-04   1.924673E-07   8.560800E+02   1.924673E-01   1.000000E+00
   8.664200E-04   1.978236E-07   8.664200E+02   1.978236E-01   1.000000E+00
# reference:
#   author: D.K.Olsen,G.De Saussure,R.B.Perez,F.C.Difilippo, R.W.Ingle,H.Weaver
#   title: Measurement and Resonance Analysis of Neutron Transmission Through Uranium-238
#   journal: Jour: Nuclear Science and Engineering, Vol.69, p.202 (1979)
