# header: 
#   title: U238(n,res) resonance parameter
#   source: EXFOR
#   user: Arjan Koning
#   date: 2025-12-01
#   format: YANDF-0.4
# exfor: 
#   author: Glass
#   year: 1968
#   subentry: 124710031
#   X4 reaction: 92-U-238(N,EL),,WID,,G
#   X4 source: IAEA-NDS C5 file, database version 2023-08-08
#   X4 link: https://nds.iaea.org/EXFOR/124710031
# target: 
#   Z: 92
#   A: 238
#   nuclide: U238
# reaction: 
#   type: (n,res)
#   ENDF_MF: 402
#   ENDF_MT: 151
#   quantity: 
#     type: resonance parameter
#   datablock: 
#     columns: 5
#     entries: 59
##       E             dE             par           dpar       Normalization
##     [eV]           [eV]            []             []             []
   4.520000E-05   0.000000E+00   1.000000E-06   5.000000E-07   1.000000E+00
   6.340000E-05   0.000000E+00   4.800000E-06   2.000000E-06   1.000000E+00
   8.080000E-05   0.000000E+00   1.960000E-03   1.000000E-04   1.000000E+00
   8.380001E-05   0.000000E+00   6.400000E-06   1.000000E-06   1.000000E+00
   9.000000E-05   0.000000E+00   8.500000E-05   3.000000E-06   1.000000E+00
   9.330000E-05   0.000000E+00   4.000000E-06   2.000000E-06   1.000000E+00
   1.244000E-04   0.000000E+00   1.900000E-05   5.000000E-06   1.000000E+00
   1.458000E-04   0.000000E+00   8.400000E-04   4.000000E-05   1.000000E+00
   1.526000E-04   0.000000E+00   3.100000E-05   5.000000E-06   1.000000E+00
   1.589000E-04   0.000000E+00   1.300000E-05   3.000000E-06   1.000000E+00
   1.730000E-04   0.000000E+00   3.000000E-05   5.000000E-06   1.000000E+00
   2.428000E-04   0.000000E+00   1.500000E-04   2.000000E-05   1.000000E+00
   2.640000E-04   0.000000E+00   2.400000E-04   3.000000E-05   1.000000E+00
   3.111000E-04   0.000000E+00   1.020000E-03   6.000000E-05   1.000000E+00
   3.769000E-04   0.000000E+00   8.700000E-04   1.000000E-04   1.000000E+00
   3.976000E-04   0.000000E+00   6.300000E-03   6.000000E-04   1.000000E+00
   4.342000E-04   0.000000E+00   1.050000E-02   6.000000E-04   1.000000E+00
   4.544000E-04   0.000000E+00   4.500000E-04   1.000000E-04   1.000000E+00
   4.633000E-04   0.000000E+00   5.800000E-03   2.000000E-04   1.000000E+00
   4.787000E-04   0.000000E+00   4.400000E-03   5.000000E-04   1.000000E+00
   4.889000E-04   0.000000E+00   6.200000E-04   1.200000E-04   1.000000E+00
   5.560000E-04   0.000000E+00   8.500000E-04   2.800000E-04   1.000000E+00
   6.242000E-04   0.000000E+00   8.000000E-04   1.000000E-04   1.000000E+00
   6.287000E-04   0.000000E+00   4.800000E-03   8.000000E-04   1.000000E+00
   6.770000E-04   0.000000E+00   8.300000E-04   4.200000E-04   1.000000E+00
   7.218000E-04   0.000000E+00   9.500000E-04   1.500000E-04   1.000000E+00
   7.299000E-04   0.000000E+00   6.000000E-04   2.000000E-04   1.000000E+00
   7.323000E-04   0.000000E+00   1.400000E-03   2.000000E-04   1.000000E+00
   7.430000E-04   0.000000E+00   3.000000E-04   1.000000E-04   1.000000E+00
   7.650999E-04   0.000000E+00   5.600000E-03   8.000000E-04   1.000000E+00
   7.791000E-04   0.000000E+00   1.400000E-03   2.000000E-04   1.000000E+00
   7.909000E-04   0.000000E+00   5.800000E-03   3.000000E-04   1.000000E+00
   8.466000E-04   0.000000E+00   6.000000E-04   1.000000E-04   1.000000E+00
   8.665000E-04   0.000000E+00   4.900000E-03   5.000000E-04   1.000000E+00
   8.913000E-04   0.000000E+00   6.700000E-04   1.500000E-04   1.000000E+00
   9.096000E-04   0.000000E+00   1.300000E-03   3.000000E-04   1.000000E+00
   9.252000E-04   0.000000E+00   1.040000E-02   1.000000E-03   1.000000E+00
   9.325000E-04   0.000000E+00   1.600000E-04   1.600000E-04   1.000000E+00
   1.011300E-03   0.000000E+00   1.900000E-03   4.000000E-04   1.000000E+00
   1.023000E-03   0.000000E+00   5.600000E-03   7.000000E-04   1.000000E+00
   1.029100E-03   0.000000E+00   2.000000E-03   3.000000E-04   1.000000E+00
   1.033200E-03   0.000000E+00   8.000000E-04   1.000000E-04   1.000000E+00
   1.068000E-03   0.000000E+00   1.000000E-03   2.000000E-04   1.000000E+00
   1.081100E-03   0.000000E+00   1.800000E-03   5.000000E-04   1.000000E+00
   1.094800E-03   0.000000E+00   2.000000E-03   5.000000E-04   1.000000E+00
   1.103200E-03   0.000000E+00   1.900000E-03   5.000000E-04   1.000000E+00
   1.132000E-03   0.000000E+00   3.600000E-03   7.000000E-04   1.000000E+00
   1.298000E-03   0.000000E+00   3.800000E-03   8.000000E-04   1.000000E+00
   1.317000E-03   0.000000E+00   4.300000E-03   4.000000E-04   1.000000E+00
   1.331000E-03   0.000000E+00   1.700000E-03   7.000000E-04   1.000000E+00
   1.410000E-03   0.000000E+00   5.000000E-02   2.000000E-04   1.000000E+00
   1.417000E-03   0.000000E+00   3.200000E-03   1.000000E-03   1.000000E+00
   1.419600E-03   0.000000E+00   7.000000E-03   2.000000E-03   1.000000E+00
   1.546000E-03   0.000000E+00   3.500000E-03   1.000000E-03   1.000000E+00
   1.550000E-03   0.000000E+00   3.000000E-03   1.000000E-03   1.000000E+00
   1.565000E-03   0.000000E+00   4.800000E-03   5.000000E-04   1.000000E+00
   1.696300E-03   0.000000E+00   5.000000E-02   2.000000E-04   1.000000E+00
   1.744000E-03   0.000000E+00   1.770000E-03   2.400000E-04   1.000000E+00
   1.798000E-03   0.000000E+00   2.600000E-03   5.000000E-04   1.000000E+00
# reference:
#   author: N.W.GLASS,A.D.SCHELBERG,L.D.TATRO,J.H.WARREN
#   title: U238 NEUTRON CAPTURE RESULTS FROM BOMB SOURCE NEUTRONS.
#   journal: Conf: Nuclear Cross-Sections Techn. Conf., Washington 1968, Vol.1, p.573
