# header: 
#   title: U238(n,res) resonance parameter
#   source: EXFOR
#   user: Arjan Koning
#   date: 2025-12-01
#   format: YANDF-0.4
# exfor: 
#   author: Rosen
#   year: 1960
#   subentry: 124600022
#   X4 reaction: 92-U-238(N,EL),,WID
#   X4 source: IAEA-NDS C5 file, database version 2023-08-08
#   X4 link: https://nds.iaea.org/EXFOR/124600022
# target: 
#   Z: 92
#   A: 238
#   nuclide: U238
# reaction: 
#   type: (n,res)
#   ENDF_MF: 402
#   ENDF_MT: 151
#   quantity: 
#     type: resonance parameter
#   datablock: 
#     columns: 5
#     entries: 48
##       E             dE             par           dpar       Normalization
##     [eV]           [eV]            []             []             []
   1.028000E-04   1.000000E-07   7.000001E-02   5.000000E-03   1.000000E+00
   1.170000E-04   1.000000E-07   1.800000E-02   3.000000E-03   1.000000E+00
   1.459000E-04   1.000000E-07   8.000000E-04   2.000000E-04   1.000000E+00
   1.657000E-04   2.000000E-07   3.500000E-03   4.000000E-04   1.000000E+00
   1.900000E-04   2.000000E-07   1.350000E-01   1.500000E-02   1.000000E+00
   2.091000E-04   2.000000E-07   5.500000E-02   6.000000E-03   1.000000E+00
   2.380000E-04   3.000000E-07   3.200000E-02   4.000000E-03   1.000000E+00
   2.640000E-04   3.000000E-07   2.300000E-04   8.000000E-05   1.000000E+00
   2.745000E-04   4.000000E-07   2.700000E-02   3.000000E-03   1.000000E+00
   2.920000E-04   4.000000E-07   1.900000E-02   3.000000E-03   1.000000E+00
   3.125000E-04   4.000000E-07   1.000000E-03   2.000000E-04   1.000000E+00
   3.490000E-04   5.000000E-07   5.500000E-02   1.000000E-03   1.000000E+00
   3.780000E-04   6.000000E-07   1.500000E-03   3.000000E-04   1.000000E+00
   3.990000E-04   6.000000E-07   1.000000E-02   2.000000E-03   1.000000E+00
   4.120000E-04   7.000000E-07   1.700000E-02   3.000000E-03   1.000000E+00
   4.360000E-04   7.000000E-07   1.400000E-02   3.000000E-03   1.000000E+00
   4.560000E-04   8.000000E-07   7.000000E-04   3.000000E-04   1.000000E+00
   4.650000E-04   8.000000E-07   7.000000E-03   2.000000E-03   1.000000E+00
   4.800000E-04   8.000000E-07   4.500000E-03   8.000000E-04   1.000000E+00
   4.910000E-04   9.000000E-07   1.000000E-03   2.000000E-04   1.000000E+00
   5.200000E-04   9.000000E-07   3.700000E-02   6.000000E-03   1.000000E+00
   5.370000E-04   1.000000E-06   5.400001E-02   8.000000E-03   1.000000E+00
   5.580000E-04   1.000000E-06   1.000000E-03   3.000000E-04   1.000000E+00
   5.820000E-04   1.100000E-06   4.200000E-02   7.000000E-03   1.000000E+00
   5.970000E-04   1.100000E-06   6.600001E-02   1.000000E-03   1.000000E+00
   6.060000E-04   1.200000E-06   6.000000E-04   3.000000E-04   1.000000E+00
   6.220000E-04   1.200000E-06   3.900000E-02   6.000000E-03   1.000000E+00
   6.300000E-04   1.200000E-06   9.000000E-03   2.000000E-03   1.000000E+00
   6.630000E-04   1.300000E-06   1.250000E-01   2.000000E-03   1.000000E+00
   6.810000E-04   1.400000E-06   1.300000E-03   3.000000E-04   1.000000E+00
   6.960000E-04   1.400000E-06   5.000000E-02   1.000000E-03   1.000000E+00
   7.110000E-04   1.500000E-06   2.000000E-02   4.000000E-03   1.000000E+00
   7.240000E-04   1.500000E-06   1.500000E-03   3.000000E-04   1.000000E+00
   7.330000E-04   1.600000E-06   4.250000E-03   9.000000E-04   1.000000E+00
   7.670000E-04   1.700000E-06   9.000000E-03   3.000000E-03   1.000000E+00
   7.830000E-04   1.700000E-06   3.000000E-03   7.000000E-04   1.000000E+00
   7.930000E-04   1.700000E-06   1.100000E-02   3.000000E-03   1.000000E+00
   8.260000E-04   1.900000E-06   6.000000E-02   1.000000E-03   1.000000E+00
   8.560000E-04   2.000000E-06   1.300000E-01   5.000000E-03   1.000000E+00
   8.600000E-04   2.000000E-06   6.000000E-02   3.000000E-03   1.000000E+00
   8.690000E-04   2.000000E-06   2.200000E-03   5.000000E-04   1.000000E+00
   8.980000E-04   2.100000E-06   1.300000E-03   4.000000E-04   1.000000E+00
   9.110000E-04   2.100000E-06   9.000000E-02   2.000000E-02   1.000000E+00
   9.300000E-04   2.200000E-06   3.700000E-02   8.000000E-03   1.000000E+00
   9.420000E-04   2.300000E-06   1.950000E-01   4.000000E-02   1.000000E+00
   9.620000E-04   2.300000E-06   1.900000E-01   4.000000E-02   1.000000E+00
   9.850000E-04   2.400000E-06   1.000000E-03   6.000000E-04   1.000000E+00
   9.970000E-04   2.500000E-06   4.000000E-01   1.000000E-01   1.000000E+00
# reference:
#   author: J.L.Rosen,J.S.Desjardins,J.Rainwater,W.W.Havens Jr
#   title: Slow neutron resonance spectroscopy. I. U238.
#   journal: Jour: Physical Review, Vol.118, p.687 (1960)
