# header:
#   title: Yb176(n,res) resonance parameter
#   source: EXFOR
#   user: Arjan Koning
#   date: 2024-01-18
#   format: YANDF-0.1
# exfor:
#   author: Liou
#   year: 1973
#   subentry: 100810212
#   X4 reaction: 70-YB-176(N,EL),,WID/RED
#   X4 source: IAEA-NDS C5 file, database version 2023-08-08
#   X4 link: https://nds.iaea.org/EXFOR/100810212
# target:
#   Z: 70
#   A: 176
#   nuclide: Yb176
# reaction:
#   type: (n,res)
#   ENDF_MF: 402
#   ENDF_MT: 151
# datablock:
#   quantity: resonance parameter
#   columns: 5
#   entries: 68
##       E             dE             par           dpar       Normalization
##     [eV]           [eV]            []             []             []
   9.787999E-05   1.100000E-07   5.500000E-05   6.000000E-06   1.000000E+00
   1.484500E-04   2.000000E-07   8.000000E-04   6.000000E-05   1.000000E+00
   3.978500E-04   4.400000E-07   1.100000E-02   1.000000E-03   1.000000E+00
   4.883000E-04   6.000000E-07   1.180000E-01   5.000000E-03   1.000000E+00
   7.260000E-04   1.070000E-06   1.480000E-01   7.000000E-03   1.000000E+00
   9.499000E-04   8.100000E-07   3.200000E-04   2.300000E-04   1.000000E+00
   9.928200E-04   8.600000E-07   2.300000E-04   1.600000E-04   1.000000E+00
   1.182000E-03   6.000000E-07   4.400000E-04   3.200000E-04   1.000000E+00
   1.392500E-03   7.000000E-07   5.100000E-02   4.000000E-03   1.000000E+00
   1.571500E-03   1.700000E-06   1.510000E-01   1.500000E-02   1.000000E+00
   1.606800E-03   9.000000E-07   1.200000E-02   1.000000E-03   1.000000E+00
   1.915900E-03   1.200000E-06   6.600000E-04   4.100000E-04   1.000000E+00
   2.009300E-03   6.000000E-07   2.900000E-02   3.000000E-03   1.000000E+00
   2.180100E-03   7.000000E-07   6.400000E-02   6.000000E-03   1.000000E+00
   2.487100E-03   9.000000E-07   6.200000E-03   1.000000E-03   1.000000E+00
   2.508800E-03   9.000000E-07   8.600000E-04   6.000000E-04   1.000000E+00
   2.722400E-03   1.000000E-06   8.600000E-03   1.300000E-03   1.000000E+00
   2.929100E-03   1.100000E-06   1.660000E-01   1.800000E-02   1.000000E+00
   3.234300E-03   1.300000E-06   3.100000E-02   3.000000E-03   1.000000E+00
   3.360700E-03   2.700000E-06   8.300000E-04   5.500000E-04   1.000000E+00
   3.660000E-03   1.500000E-06   2.000000E-02   2.000000E-03   1.000000E+00
   3.781100E-03   1.600000E-06   1.870000E-03   3.300000E-04   1.000000E+00
   3.792300E-03   1.600000E-06   7.500000E-03   1.000000E-03   1.000000E+00
   4.300300E-03   2.000000E-06   3.000000E-02   3.000000E-03   1.000000E+00
   4.351000E-03   2.000000E-06   1.820000E-02   2.300000E-03   1.000000E+00
   4.620200E-03   2.200000E-06   1.090000E-02   1.500000E-03   1.000000E+00
   5.037700E-03   2.500000E-06   3.800000E-02   4.000000E-03   1.000000E+00
   5.382600E-03   2.700000E-06   9.400000E-02   1.100000E-02   1.000000E+00
   5.481300E-03   2.800000E-06   8.600000E-03   1.800000E-03   1.000000E+00
   5.716300E-03   3.000000E-06   3.200000E-01   4.000000E-02   1.000000E+00
   6.001700E-03   3.200000E-06   4.000000E-02   5.000000E-03   1.000000E+00
   6.315800E-03   3.500000E-06   7.500000E-02   1.000000E-02   1.000000E+00
   6.480400E-03   3.600000E-06   7.700000E-03   1.200000E-03   1.000000E+00
   6.722600E-03   3.800000E-06   5.200000E-02   6.000000E-03   1.000000E+00
   6.955300E-03   4.000000E-06   8.000001E-02   1.000000E-02   1.000000E+00
   7.331100E-03   4.300000E-06   3.400000E-02   5.000000E-03   1.000000E+00
   7.555200E-03   4.500000E-06   1.060000E-02   2.100000E-03   1.000000E+00
   7.801500E-03   4.700000E-06   1.640000E-02   3.400000E-03   1.000000E+00
   8.200600E-03   5.100000E-06   2.700000E-02   3.000000E-03   1.000000E+00
   8.595500E-03   5.500000E-06   9.200001E-02   1.100000E-02   1.000000E+00
   8.739100E-03   5.600000E-06   3.600000E-02   4.000000E-03   1.000000E+00
   8.984599E-03   5.900000E-06   9.500001E-02   1.100000E-02   1.000000E+00
   9.217000E-03   6.100000E-06   6.000000E-02   8.000000E-03   1.000000E+00
   9.495700E-03   6.400000E-06   2.800000E-01   3.000000E-02   1.000000E+00
   9.721300E-03   6.600000E-06   7.900000E-02   1.000000E-02   1.000000E+00
   9.853900E-03   6.700000E-06   9.000000E-02   1.200000E-02   1.000000E+00
   1.051500E-02   7.000000E-06   1.660000E-02   4.900000E-03   1.000000E+00
   1.162900E-02   9.000000E-06   1.480000E-02   4.600000E-03   1.000000E+00
   1.173300E-02   9.000000E-06   8.300000E-02   1.300000E-02   1.000000E+00
   1.204300E-02   9.000000E-06   1.370000E-02   7.300000E-03   1.000000E+00
   1.208900E-02   9.000000E-06   1.000000E-02   5.500000E-03   1.000000E+00
   1.243200E-02   1.000000E-05   1.080000E-01   1.500000E-02   1.000000E+00
   1.276100E-02   1.000000E-05   1.680000E-01   2.700000E-02   1.000000E+00
   1.340800E-02   1.100000E-05   1.990000E-01   3.500000E-02   1.000000E+00
   1.360100E-02   1.100000E-05   1.590000E-01   2.600000E-02   1.000000E+00
   1.373200E-02   1.100000E-05   1.790000E-01   2.600000E-02   1.000000E+00
   1.405100E-02   1.200000E-05   7.500000E-02   1.200000E-02   1.000000E+00
   1.424200E-02   1.200000E-05   5.200000E-02   1.000000E-02   1.000000E+00
   1.506700E-02   1.300000E-05   3.300000E-02   8.000000E-03   1.000000E+00
   1.516900E-02   1.300000E-05   1.010000E-01   1.600000E-02   1.000000E+00
   1.607700E-02   4.400000E-05   3.000000E-02   9.000000E-03   1.000000E+00
   1.771300E-02   1.600000E-05   1.010000E-01   2.000000E-02   1.000000E+00
   1.779400E-02   1.600000E-05   9.700000E-02   2.200000E-02   1.000000E+00
   1.815600E-02   1.700000E-05   8.500001E-02   1.500000E-02   1.000000E+00
   1.878300E-02   1.800000E-05   2.700000E-02   9.000000E-03   1.000000E+00
   1.898800E-02   1.800000E-05   6.500001E-02   1.600000E-02   1.000000E+00
   1.949900E-02   1.900000E-05   1.720000E-01   2.900000E-02   1.000000E+00
   1.964900E-02   1.900000E-05   1.500000E-01   2.500000E-02   1.000000E+00
# reference:
#   author: H.I.LIOU,H.S.CAMARDA,G.HACKEN,F.RAHN,J.RAINWATER, M.SLAGOWITZ,S.WYNCHANK
#   title: Neutron resonance spectroscopy. XI. The separated  isotopes of Yb.
#   journal: Jour: Physical Review, Part C, Nuclear Physics, Vol.7, p.823 (1973)
