# header: 
#   title: I129(n,res) resonance parameter
#   source: EXFOR
#   user: Arjan Koning
#   date: 2025-12-18
#   format: YANDF-0.4
# exfor: 
#   author: Noguere
#   year: 2002
#   subentry: 226860022
#   X4 reaction: 53-I-129(N,EL),,WID,,G
#   X4 source: IAEA-NDS C5 file, database version 2023-08-08
#   X4 link: https://nds.iaea.org/EXFOR/226860022
# target: 
#   Z: 53
#   A: 129
#   nuclide: I129
# reaction: 
#   type: (n,res)
#   ENDF_MF: 402
#   ENDF_MT: 151
#   quantity: 
#     type: resonance parameter
#   datablock: 
#     columns: 5
#     entries: 24
##       E             dE             par           dpar       Normalization
##     [eV]           [eV]            []             []             []
   4.140000E-05   0.000000E+00   6.000000E-05   5.000000E-06   1.000000E+00
   7.210000E-05   0.000000E+00   6.020000E-03   3.051200E-04   1.000000E+00
   9.630001E-05   0.000000E+00   6.300000E-04   3.731300E-05   1.000000E+00
   1.463000E-04   0.000000E+00   1.930000E-02   9.855099E-04   1.000000E+00
   1.525000E-04   0.000000E+00   9.900000E-03   5.050000E-04   1.000000E+00
   1.986000E-04   0.000000E+00   1.540000E-03   9.761700E-05   1.000000E+00
   2.589000E-04   0.000000E+00   6.600000E-04   8.653900E-05   1.000000E+00
   2.840000E-04   0.000000E+00   5.710000E-03   2.939600E-04   1.000000E+00
   2.904000E-04   0.000000E+00   6.900000E-03   3.592000E-04   1.000000E+00
   2.954000E-04   0.000000E+00   1.180000E-03   9.154800E-05   1.000000E+00
   4.097000E-04   0.000000E+00   2.670000E-02   1.393600E-03   1.000000E+00
   4.229000E-04   0.000000E+00   4.640000E-02   2.354230E-03   1.000000E+00
   4.539000E-04   0.000000E+00   2.230000E-02   1.154700E-03   1.000000E+00
   4.688000E-04   0.000000E+00   5.310000E-02   2.722000E-03   1.000000E+00
   4.889000E-04   0.000000E+00   2.560000E-02   1.341000E-03   1.000000E+00
   5.475000E-04   0.000000E+00   2.560000E-02   1.341000E-03   1.000000E+00
   5.951000E-04   0.000000E+00   4.600000E-03   3.780200E-04   1.000000E+00
   6.926000E-04   0.000000E+00   8.770000E-02   4.520900E-03   1.000000E+00
   7.189000E-04   0.000000E+00   1.790000E-02   1.077500E-03   1.000000E+00
   7.962000E-04   0.000000E+00   7.450000E-02   4.015700E-03   1.000000E+00
   8.028000E-04   0.000000E+00   4.300000E-02   2.415100E-03   1.000000E+00
   8.543000E-04   0.000000E+00   4.680000E-02   2.585700E-03   1.000000E+00
   9.142000E-04   0.000000E+00   9.100001E-02   4.823100E-03   1.000000E+00
   1.001500E-03   0.000000E+00   1.364000E-01   7.166100E-03   1.000000E+00
# reference:
#   author: G.Noguere, A.Brusegan,A.Lepretre, N.Herault,O.Bouland, G.Rudolf, R.Galleano, E.Macavero
#   title: The Reich-Moore Analysis of the 127I and 129I in  Resolved Resonance Range
#   journal: Jour: Jour. of Nuclear Science and Technology Suppl., Vol.2, Issue.1, p.
