# header: 
#   title: Ni0(n,xg) DDX at  6.180000E+00 MeV
#   source: EXFOR
#   user: Arjan Koning
#   date: 2025-12-01
#   format: YANDF-0.4
# exfor: 
#   author: Sanami
#   year: 1998
#   subentry: 22354008
#   X4 reaction: 28-NI-0(N,A),,DA/DE
#   X4 source: IAEA-NDS C5 file, database version 2023-08-08
#   X4 link: https://nds.iaea.org/EXFOR/22354008
# target: 
#   Z: 28
#   A: 0
#   nuclide: Ni0
# reaction: 
#   type: (n,xg)
#   ENDF_MF: 6
#   ENDF_MT: 107
#   E-incident [MeV]:  6.180000E+00
#   quantity: 
#     type: DDX
#   datablock: 
#     columns: 5
#     entries: 48
##     E-out         dE-out           xs             dxs       Normalization
##     [MeV]          [MeV]       [mb/MeV.sr]    [mb/MeV.sr]        []
   5.075000E+00   2.500000E-02   8.376900E-08   6.160100E-08   2.160000E+01   1.000000E+00
   5.125000E+00   2.500000E-02   1.983800E-07   1.568300E-07   2.160000E+01   1.000000E+00
   5.200000E+00   5.000000E-02   7.969900E-08   7.875500E-08   2.160000E+01   1.000000E+00
   5.275000E+00   2.500000E-02   1.353500E-07   2.092300E-07   2.160000E+01   1.000000E+00
   5.325000E+00   2.500000E-02   9.949400E-08   3.214800E-07   2.160000E+01   1.000000E+00
   5.575000E+00   2.250000E-01   1.542900E-08   1.553900E-07   2.160000E+01   1.000000E+00
   5.825000E+00   2.500000E-02   1.172700E-07   1.321500E-07   2.160000E+01   1.000000E+00
   5.975000E+00   1.250000E-01   6.013300E-08   6.776100E-08   2.160000E+01   1.000000E+00
   6.125000E+00   2.500000E-02   1.846100E-07   2.419000E-07   2.160000E+01   1.000000E+00
   6.225000E+00   7.500000E-02   8.157400E-08   1.068900E-07   2.160000E+01   1.000000E+00
   6.325000E+00   2.500000E-02   2.144300E-07   1.808200E-07   2.160000E+01   1.000000E+00
   6.375000E+00   2.500000E-02   5.525700E-07   2.161400E-07   2.160000E+01   1.000000E+00
   6.425000E+00   2.500000E-02   9.578300E-07   3.051400E-07   2.160000E+01   1.000000E+00
   6.475000E+00   2.500000E-02   5.588000E-07   2.035100E-07   2.160000E+01   1.000000E+00
   6.525000E+00   2.500000E-02   2.781000E-07   3.453600E-07   2.160000E+01   1.000000E+00
   6.575000E+00   2.500000E-02   2.486700E-07   4.200400E-07   2.160000E+01   1.000000E+00
   6.625000E+00   2.500000E-02   7.499300E-08   1.734500E-07   2.160000E+01   1.000000E+00
   6.675000E+00   2.500000E-02   4.223700E-07   3.213400E-07   2.160000E+01   1.000000E+00
   6.725000E+00   2.500000E-02   1.211300E-06   4.599200E-07   2.160000E+01   1.000000E+00
   6.775000E+00   2.500000E-02   5.799300E-07   5.393400E-07   2.160000E+01   1.000000E+00
   6.825000E+00   2.500000E-02   5.951700E-07   4.012000E-07   2.160000E+01   1.000000E+00
   6.875000E+00   2.500000E-02   1.168600E-06   3.880100E-07   2.160000E+01   1.000000E+00
   6.925000E+00   2.500000E-02   1.252500E-06   4.103300E-07   2.160000E+01   1.000000E+00
   6.975000E+00   2.500000E-02   4.384200E-07   1.788100E-07   2.160000E+01   1.000000E+00
   7.025000E+00   2.500000E-02   2.695700E-08   2.576100E-08   2.160000E+01   1.000000E+00
   7.075000E+00   2.500000E-02   2.628800E-07   1.521300E-07   2.160000E+01   1.000000E+00
   7.125000E+00   2.500000E-02   6.719100E-07   2.671200E-07   2.160000E+01   1.000000E+00
   7.175000E+00   2.500000E-02   8.572500E-07   2.916600E-07   2.160000E+01   1.000000E+00
   7.225000E+00   2.500000E-02   7.471100E-07   2.548800E-07   2.160000E+01   1.000000E+00
   7.275000E+00   2.500000E-02   5.668200E-07   2.423100E-07   2.160000E+01   1.000000E+00
   7.325000E+00   2.500000E-02   7.546899E-07   3.075500E-07   2.160000E+01   1.000000E+00
   7.375000E+00   2.500000E-02   9.838500E-07   3.544000E-07   2.160000E+01   1.000000E+00
   7.425000E+00   2.500000E-02   1.514200E-06   4.933600E-07   2.160000E+01   1.000000E+00
   7.475000E+00   2.500000E-02   1.468700E-06   6.449200E-07   2.160000E+01   1.000000E+00
   7.525000E+00   2.500000E-02   2.296000E-06   6.958900E-07   2.160000E+01   1.000000E+00
   7.575000E+00   2.500000E-02   1.611700E-06   4.824100E-07   2.160000E+01   1.000000E+00
   7.625000E+00   2.500000E-02   5.137900E-07   1.872200E-07   2.160000E+01   1.000000E+00
   7.675000E+00   2.500000E-02   1.134500E-06   4.431200E-07   2.160000E+01   1.000000E+00
   7.725000E+00   2.500000E-02   1.074100E-06   3.994900E-07   2.160000E+01   1.000000E+00
   7.775000E+00   2.500000E-02   7.567200E-07   4.967700E-07   2.160000E+01   1.000000E+00
   7.825000E+00   2.500000E-02   1.103800E-06   4.287000E-07   2.160000E+01   1.000000E+00
   7.875000E+00   2.500000E-02   8.922200E-07   2.943200E-07   2.160000E+01   1.000000E+00
   7.925000E+00   2.500000E-02   1.263400E-06   4.496100E-07   2.160000E+01   1.000000E+00
   7.975000E+00   2.500000E-02   1.519700E-06   5.204600E-07   2.160000E+01   1.000000E+00
   8.025000E+00   2.500000E-02   1.217800E-06   3.623800E-07   2.160000E+01   1.000000E+00
   8.075000E+00   2.500050E-02   6.207700E-07   2.314900E-07   2.160000E+01   1.000000E+00
   8.125000E+00   2.499950E-02   5.469800E-07   2.839100E-07   2.160000E+01   1.000000E+00
   8.175000E+00   2.500000E-02   1.020600E-06   3.702000E-07   2.160000E+01   1.000000E+00
# reference:
#   author: T.Sanami,M.Baba,T.Kawano,S.Matsuyama,T.Kiyosumi, Y.Nauchi,K.Saito,N.Hirakawa,N.Ito
#   title: High resolution measurements of double-differential  (n,alpha) cross-sections of Ni-58 and Ni-nat  between 4.2 and 6.5 MeV neutrons
#   journal: Jour: Jour. of Nuclear Science and Technology, Vol.35, p.851 (1998)
