# header: 
#   title: Ni0(n,xg) DDX at  5.820000E+00 MeV
#   source: EXFOR
#   user: Arjan Koning
#   date: 2025-08-01
#   format: YANDF-0.2
# exfor: 
#   author: Sanami
#   year: 1998
#   subentry: 22354008
#   X4 reaction: 28-NI-0(N,A),,DA/DE
#   X4 source: IAEA-NDS C5 file, database version 2023-08-08
#   X4 link: https://nds.iaea.org/EXFOR/22354008
# target: 
#   Z: 28
#   A: 0
#   nuclide: Ni0
# reaction: 
#   type: (n,xg)
#   ENDF_MF: 6
#   ENDF_MT: 107
#   E-incident [MeV]:  5.820000E+00
#   quantity: 
#     type: DDX
#   datablock: 
#     columns: 5
#     entries: 52
##     E-out         dE-out           xs             dxs       Normalization
##     [MeV]          [MeV]       [mb/MeV.sr]    [mb/MeV.sr]        []
   5.075000E+00   2.500000E-02   8.286200E-08   8.289501E-08   2.160000E+01   1.000000E+00
   5.125000E+00   2.500000E-02   5.952000E-07   3.245700E-07   2.160000E+01   1.000000E+00
   5.200000E+00   5.000000E-02   2.529000E-07   1.461900E-07   2.160000E+01   1.000000E+00
   5.275000E+00   2.500000E-02   2.958500E-07   3.515500E-07   2.160000E+01   1.000000E+00
   5.325000E+00   2.500000E-02   1.341800E-07   1.594400E-07   2.160000E+01   1.000000E+00
   5.375000E+00   2.500000E-02   2.757000E-07   2.358100E-07   2.160000E+01   1.000000E+00
   5.425000E+00   2.500000E-02   1.250400E-07   1.069500E-07   2.160000E+01   1.000000E+00
   5.475000E+00   2.500000E-02   8.129800E-07   4.316300E-07   2.160000E+01   1.000000E+00
   5.525000E+00   2.500000E-02   4.538000E-07   2.015700E-07   2.160000E+01   1.000000E+00
   5.575000E+00   2.500000E-02   8.850200E-08   4.141700E-08   2.160000E+01   1.000000E+00
   5.650000E+00   5.000000E-02   2.263800E-08   1.602000E-08   2.160000E+01   1.000000E+00
   5.725000E+00   2.500000E-02   1.226600E-07   1.227100E-07   2.160000E+01   1.000000E+00
   5.775000E+00   2.500000E-02   1.897700E-07   1.453200E-07   2.160000E+01   1.000000E+00
   5.825000E+00   2.500000E-02   3.371000E-07   2.788800E-07   2.160000E+01   1.000000E+00
   5.875000E+00   2.500000E-02   1.890100E-07   1.314400E-07   2.160000E+01   1.000000E+00
   5.925000E+00   2.500000E-02   9.120000E-08   6.561901E-08   2.160000E+01   1.000000E+00
   6.000000E+00   5.000000E-02   2.825600E-08   2.826800E-08   2.160000E+01   1.000000E+00
   6.075000E+00   2.500000E-02   3.381300E-07   2.556300E-07   2.160000E+01   1.000000E+00
   6.125000E+00   2.500000E-02   1.652300E-07   6.756000E-07   2.160000E+01   1.000000E+00
   6.175000E+00   2.500000E-02   9.553200E-08   2.697800E-07   2.160000E+01   1.000000E+00
   6.225000E+00   2.500000E-02   4.267000E-07   2.657000E-07   2.160000E+01   1.000000E+00
   6.275000E+00   2.500000E-02   6.387700E-07   2.629500E-07   2.160000E+01   1.000000E+00
   6.325000E+00   2.500000E-02   5.565100E-07   2.209500E-07   2.160000E+01   1.000000E+00
   6.375000E+00   2.500000E-02   3.651600E-07   2.245300E-07   2.160000E+01   1.000000E+00
   6.425000E+00   2.500000E-02   1.179100E-06   5.413300E-07   2.160000E+01   1.000000E+00
   6.475000E+00   2.500000E-02   5.780799E-07   2.313700E-07   2.160000E+01   1.000000E+00
   6.525000E+00   2.500000E-02   5.851500E-08   3.780700E-08   2.160000E+01   1.000000E+00
   6.575000E+00   2.500000E-02   2.324100E-08   2.942100E-07   2.160000E+01   1.000000E+00
   6.625000E+00   2.500000E-02   5.388600E-07   2.965100E-07   2.160000E+01   1.000000E+00
   6.675000E+00   2.500000E-02   1.060400E-06   4.001000E-07   2.160000E+01   1.000000E+00
   6.725000E+00   2.500000E-02   5.499800E-07   1.909900E-07   2.160000E+01   1.000000E+00
   6.775000E+00   2.500000E-02   8.004000E-07   4.108500E-07   2.160000E+01   1.000000E+00
   6.825000E+00   2.500000E-02   1.876500E-06   6.375100E-07   2.160000E+01   1.000000E+00
   6.875000E+00   2.500000E-02   1.684000E-06   4.453700E-07   2.160000E+01   1.000000E+00
   6.925000E+00   2.500000E-02   1.672300E-06   4.792300E-07   2.160000E+01   1.000000E+00
   6.975000E+00   2.500000E-02   1.338700E-06   8.069300E-07   2.160000E+01   1.000000E+00
   7.025000E+00   2.500000E-02   1.915700E-06   7.697300E-07   2.160000E+01   1.000000E+00
   7.075000E+00   2.500000E-02   3.102700E-06   8.071200E-07   2.160000E+01   1.000000E+00
   7.125000E+00   2.500000E-02   2.771000E-06   6.954400E-07   2.160000E+01   1.000000E+00
   7.175000E+00   2.500000E-02   2.639000E-06   7.250500E-07   2.160000E+01   1.000000E+00
   7.225000E+00   2.500000E-02   1.528500E-06   4.350600E-07   2.160000E+01   1.000000E+00
   7.275000E+00   2.500000E-02   9.591599E-07   3.367400E-07   2.160000E+01   1.000000E+00
   7.325000E+00   2.500000E-02   1.065100E-06   3.866200E-07   2.160000E+01   1.000000E+00
   7.375000E+00   2.500000E-02   1.800400E-06   5.798800E-07   2.160000E+01   1.000000E+00
   7.425000E+00   2.500000E-02   1.736400E-06   5.115400E-07   2.160000E+01   1.000000E+00
   7.475000E+00   2.500000E-02   1.689500E-06   5.897100E-07   2.160000E+01   1.000000E+00
   7.525000E+00   2.500000E-02   1.248900E-06   4.459200E-07   2.160000E+01   1.000000E+00
   7.575000E+00   2.500000E-02   1.251200E-06   6.678100E-07   2.160000E+01   1.000000E+00
   7.650000E+00   5.000000E-02   3.378900E-07   2.274000E-07   2.160000E+01   1.000000E+00
   7.725000E+00   2.500000E-02   5.389100E-07   3.461700E-07   2.160000E+01   1.000000E+00
   7.775000E+00   2.500000E-02   1.025500E-06   4.725600E-07   2.160000E+01   1.000000E+00
   7.825000E+00   2.500000E-02   4.199800E-07   1.066500E-06   2.160000E+01   1.000000E+00
# reference:
#   author: T.Sanami,M.Baba,T.Kawano,S.Matsuyama,T.Kiyosumi, Y.Nauchi,K.Saito,N.Hirakawa,N.Ito
#   title: High resolution measurements of double-differential  (n,alpha) cross-sections of Ni-58 and Ni-nat  between 4.2 and 6.5 MeV neutrons
#   journal: Jour: Jour. of Nuclear Science and Technology, Vol.35, p.851 (1998)
