# header: 
#   title: Sb0(n,x)Sb1 cross section
#   source: EXFOR
#   user: Arjan Koning
#   date: 2025-08-01
#   format: YANDF-0.2
# exfor: 
#   author: Yamamoto
#   year: 1990
#   subentry: 22196002
#   X4 reaction: 51-SB-0(N,G),,SIG
#   X4 source: IAEA-NDS C5 file, database version 2023-08-08
#   X4 link: https://nds.iaea.org/EXFOR/22196002
# target: 
#   Z: 51
#   A: 0
#   nuclide: Sb0
# reaction: 
#   type: (n,x)
#   ENDF_MF: 3
#   ENDF_MT: 102
#   residual: 
#     Z: 51
#     A: 1
#     nuclide: Sb1
#   quantity: 
#     type: cross section
#   datablock: 
#     columns: 5
#     entries: 37
##       E             dE             xs             dxs       Normalization
##     [MeV]          [MeV]          [mb]           [mb]            []
   1.338000E-08   0.000000E+00   7.568000E+03   4.341000E+01   1.000000E+00
   1.503000E-08   0.000000E+00   6.906000E+03   4.134000E+01   1.000000E+00
   1.686000E-08   0.000000E+00   6.048000E+03   3.899000E+01   1.000000E+00
   1.893000E-08   0.000000E+00   5.963000E+03   3.560000E+01   1.000000E+00
   2.126000E-08   0.000000E+00   5.422000E+03   3.460000E+01   1.000000E+00
   2.387000E-08   0.000000E+00   5.243000E+03   3.250000E+01   1.000000E+00
   2.679000E-08   0.000000E+00   4.981000E+03   3.144000E+01   1.000000E+00
   3.009000E-08   0.000000E+00   4.715000E+03   3.056000E+01   1.000000E+00
   3.378000E-08   0.000000E+00   4.435000E+03   3.005000E+01   1.000000E+00
   3.791000E-08   0.000000E+00   4.266000E+03   2.945000E+01   1.000000E+00
   4.257000E-08   0.000000E+00   4.200000E+03   2.879000E+01   1.000000E+00
   4.784000E-08   0.000000E+00   3.804000E+03   2.884000E+01   1.000000E+00
   5.376000E-08   0.000000E+00   3.670000E+03   2.869000E+01   1.000000E+00
   6.039000E-08   0.000000E+00   3.506000E+03   2.874000E+01   1.000000E+00
   6.779000E-08   0.000000E+00   3.329000E+03   2.904000E+01   1.000000E+00
   7.610000E-08   0.000000E+00   3.249000E+03   2.935000E+01   1.000000E+00
   8.548000E-08   0.000000E+00   3.084000E+03   3.000000E+01   1.000000E+00
   9.605000E-08   0.000000E+00   3.001000E+03   3.092000E+01   1.000000E+00
   1.079000E-07   0.000000E+00   2.804000E+03   3.259000E+01   1.000000E+00
   1.213000E-07   0.000000E+00   2.781000E+03   3.497000E+01   1.000000E+00
   1.361000E-07   0.000000E+00   2.643000E+03   3.817000E+01   1.000000E+00
   1.528000E-07   0.000000E+00   2.533000E+03   4.283000E+01   1.000000E+00
   1.715000E-07   0.000000E+00   2.411000E+03   4.888000E+01   1.000000E+00
   1.928000E-07   0.000000E+00   2.230000E+03   5.692000E+01   1.000000E+00
   2.170000E-07   0.000000E+00   2.125000E+03   6.266000E+01   1.000000E+00
   2.439000E-07   0.000000E+00   1.954000E+03   6.959000E+01   1.000000E+00
   2.743000E-07   0.000000E+00   1.786000E+03   7.519000E+01   1.000000E+00
   3.084000E-07   0.000000E+00   1.831000E+03   7.682000E+01   1.000000E+00
   3.467000E-07   0.000000E+00   1.900000E+03   7.431000E+01   1.000000E+00
   3.905000E-07   0.000000E+00   1.670000E+03   8.823000E+01   1.000000E+00
   4.393000E-07   0.000000E+00   1.653000E+03   9.301000E+01   1.000000E+00
   4.932000E-07   0.000000E+00   1.532000E+03   1.037000E+02   1.000000E+00
   5.541000E-07   0.000000E+00   1.074000E+03   1.425000E+02   1.000000E+00
   6.228000E-07   0.000000E+00   1.033000E+03   1.493000E+02   1.000000E+00
   6.998999E-07   0.000000E+00   1.191000E+03   1.141000E+02   1.000000E+00
   7.862000E-07   0.000000E+00   1.160000E+03   7.159000E+01   1.000000E+00
   8.859000E-07   0.000000E+00   1.059000E+03   5.992000E+01   1.000000E+00
# reference:
#   author: S.YAMAMOTO,K.KOBAYASHI,Y.FUJITA
#   title: -ABSOLUTE MEASUREMENT OF NEUTRON CAPTURE CROSS SECTIONS  WITH BGO SCINTILLATORS.
#   journal: Prog: Japanese report to NEANDC, No.155, p.59 (1990)
