# header: 
#   title: Sb0(n,x)Sb1 cross section
#   source: EXFOR
#   user: Arjan Koning
#   date: 2025-10-25
#   format: YANDF-0.4
# exfor: 
#   author: Yamamoto
#   year: 1996
#   subentry: 22370005
#   X4 reaction: 51-SB-0(N,G),,SIG
#   X4 source: IAEA-NDS C5 file, database version 2023-08-08
#   X4 link: https://nds.iaea.org/EXFOR/22370005
# target: 
#   Z: 51
#   A: 0
#   nuclide: Sb0
# reaction: 
#   type: (n,x)
#   ENDF_MF: 3
#   ENDF_MT: 102
#   residual: 
#     Z: 51
#     A: 1
#     nuclide: Sb1
#   quantity: 
#     type: cross section
#   datablock: 
#     columns: 5
#     entries: 55
##       E             dE             xs             dxs       Normalization
##     [MeV]          [MeV]          [mb]           [mb]            []
   1.338000E-08   0.000000E+00   7.094100E+03   2.085100E+02   1.000000E+00
   1.503000E-08   0.000000E+00   6.720100E+03   1.911500E+02   1.000000E+00
   1.686000E-08   0.000000E+00   6.412700E+03   1.770700E+02   1.000000E+00
   1.893000E-08   0.000000E+00   5.967500E+03   1.606500E+02   1.000000E+00
   2.126000E-08   0.000000E+00   5.604800E+03   1.483200E+02   1.000000E+00
   2.387000E-08   0.000000E+00   5.287200E+03   1.379400E+02   1.000000E+00
   2.679000E-08   0.000000E+00   5.029600E+03   1.298500E+02   1.000000E+00
   3.009000E-08   0.000000E+00   4.766300E+03   1.219200E+02   1.000000E+00
   3.378000E-08   0.000000E+00   4.545900E+03   1.156000E+02   1.000000E+00
   3.791000E-08   0.000000E+00   4.303000E+03   1.088500E+02   1.000000E+00
   4.257000E-08   0.000000E+00   4.052100E+03   1.020100E+02   1.000000E+00
   4.784000E-08   0.000000E+00   3.862300E+03   9.700700E+01   1.000000E+00
   5.376000E-08   0.000000E+00   3.663400E+03   9.183500E+01   1.000000E+00
   6.039000E-08   0.000000E+00   3.490500E+03   8.753900E+01   1.000000E+00
   6.779000E-08   0.000000E+00   3.323300E+03   8.341901E+01   1.000000E+00
   7.610000E-08   0.000000E+00   3.166200E+03   7.966600E+01   1.000000E+00
   8.548000E-08   0.000000E+00   2.953800E+03   7.457000E+01   1.000000E+00
   9.605000E-08   0.000000E+00   2.866800E+03   7.286900E+01   1.000000E+00
   1.079000E-07   0.000000E+00   2.643000E+03   6.777600E+01   1.000000E+00
   1.213000E-07   0.000000E+00   2.506300E+03   6.520400E+01   1.000000E+00
   1.361000E-07   0.000000E+00   2.347000E+03   6.222900E+01   1.000000E+00
   1.528000E-07   0.000000E+00   2.237400E+03   6.082200E+01   1.000000E+00
   1.715000E-07   0.000000E+00   2.123200E+03   5.972400E+01   1.000000E+00
   1.928000E-07   0.000000E+00   1.995500E+03   5.817500E+01   1.000000E+00
   2.170000E-07   0.000000E+00   1.896100E+03   5.796900E+01   1.000000E+00
   2.439000E-07   0.000000E+00   1.735600E+03   5.499500E+01   1.000000E+00
   2.743000E-07   0.000000E+00   1.647500E+03   5.360600E+01   1.000000E+00
   3.084000E-07   0.000000E+00   1.633900E+03   5.436400E+01   1.000000E+00
   3.467000E-07   0.000000E+00   1.508500E+03   5.113200E+01   1.000000E+00
   3.905000E-07   0.000000E+00   1.401200E+03   4.749700E+01   1.000000E+00
   4.393000E-07   0.000000E+00   1.314100E+03   4.597600E+01   1.000000E+00
   4.932000E-07   0.000000E+00   1.297200E+03   4.572000E+01   1.000000E+00
   5.541000E-07   0.000000E+00   1.227100E+03   4.369800E+01   1.000000E+00
   6.228000E-07   0.000000E+00   1.219200E+03   4.244300E+01   1.000000E+00
   6.998999E-07   0.000000E+00   1.171800E+03   4.244300E+01   1.000000E+00
   7.862000E-07   0.000000E+00   1.078800E+03   3.916500E+01   1.000000E+00
   8.859000E-07   0.000000E+00   1.053300E+03   3.765300E+01   1.000000E+00
   1.001000E-06   0.000000E+00   9.997100E+02   3.588500E+01   1.000000E+00
   1.130000E-06   0.000000E+00   9.611800E+02   3.423300E+01   1.000000E+00
   1.274000E-06   0.000000E+00   9.616300E+02   3.392000E+01   1.000000E+00
   1.438000E-06   0.000000E+00   9.467100E+02   3.263200E+01   1.000000E+00
   1.628000E-06   0.000000E+00   9.382400E+02   3.192700E+01   1.000000E+00
   1.836000E-06   0.000000E+00   9.399300E+02   3.149600E+01   1.000000E+00
   2.073000E-06   0.000000E+00   9.451300E+02   3.016200E+01   1.000000E+00
   2.344000E-06   0.000000E+00   9.941700E+02   3.090200E+01   1.000000E+00
   2.653000E-06   0.000000E+00   1.050900E+03   3.115000E+01   1.000000E+00
   3.004000E-06   0.000000E+00   1.203400E+03   3.444000E+01   1.000000E+00
   3.403000E-06   0.000000E+00   1.439600E+03   3.905700E+01   1.000000E+00
   3.853000E-06   0.000000E+00   1.792200E+03   4.695200E+01   1.000000E+00
   4.359000E-06   0.000000E+00   2.617300E+03   6.645200E+01   1.000000E+00
   4.923000E-06   0.000000E+00   4.944900E+03   1.275500E+02   1.000000E+00
   5.548000E-06   0.000000E+00   2.519900E+04   6.459200E+02   1.000000E+00
   6.301000E-06   0.000000E+00   1.448700E+05   3.978200E+03   1.000000E+00
   7.130000E-06   0.000000E+00   7.515600E+03   2.457400E+02   1.000000E+00
   8.038999E-06   0.000000E+00   2.203500E+03   8.810600E+01   1.000000E+00
# reference:
#   author: S.YAMAMOTO,K.KOBAYASHI,Y.FUJITA
#   title: APPLICATION OF 'BGO' SCINTILLATORS TO ABSOLUTE  MEASUREMENTS OF NEUTRON CAPTURE CROSS-SECTIONS  BETWEEN 0.01 EV AND 10 EV
#   journal: Jour: Jour. of Nuclear Science and Technology, Vol.33, Issue.11, p.815 (
# statistics:
#   NEA score:   
#   IAEA score: -1
#   E-min [MeV]:  1.338000E-08
#   E-max [MeV]:  8.038999E-06
#   F-value:  0.000000E+00
#   A-value:  0.000000E+00
#   chi-2:  0.000000E+00
#   p-value:  0.000000E+00
#   exp. data sets for p-value:      2
#   libraries:      0
##  Library          F              A            chi-2
