# header: 
#   title: Nb93(i,xp) DDX at  2.080000E+02 MeV
#   source: EXFOR
#   user: Arjan Koning
#   date: 2025-10-25
#   format: YANDF-0.4
# exfor: 
#   author: Fukuda
#   year: 1984
#   subentry: E1192003
#   X4 reaction: 41-NB-93(7-N-14,X)1-H-1,,DA/DE
#   X4 source: IAEA-NDS C5 file, database version 2023-08-08
#   X4 link: https://nds.iaea.org/EXFOR/E1192003
# target: 
#   Z: 41
#   A: 93
#   nuclide: Nb93
# reaction: 
#   type: (i,xp)
#   ENDF_MF: 6
#   ENDF_MT: 203
#   E-incident [MeV]:  2.080000E+02
#   quantity: 
#     type: DDX
#   datablock: 
#     columns: 5
#     entries: 43
##     E-out         dE-out           xs             dxs       Normalization
##     [MeV]          [MeV]       [mb/MeV.sr]    [mb/MeV.sr]        []
   1.010000E+00   0.000000E+00   2.304000E-07   3.456000E-08   1.500000E+01   1.000000E+00
   2.853000E+00   0.000000E+00   3.854000E-06   5.781000E-07   1.500000E+01   1.000000E+00
   4.879000E+00   0.000000E+00   1.457000E-05   2.185500E-06   1.500000E+01   1.000000E+00
   6.661000E+00   0.000000E+00   3.424000E-05   5.136000E-06   1.500000E+01   1.000000E+00
   8.593000E+00   0.000000E+00   4.709000E-05   7.063500E-06   1.500000E+01   1.000000E+00
   1.054000E+01   0.000000E+00   4.533000E-05   6.799500E-06   1.500000E+01   1.000000E+00
   1.235000E+01   0.000000E+00   3.952000E-05   5.928000E-06   1.500000E+01   1.000000E+00
   1.443000E+01   0.000000E+00   3.515000E-05   5.272500E-06   1.500000E+01   1.000000E+00
   1.625000E+01   0.000000E+00   2.887000E-05   4.330500E-06   1.500000E+01   1.000000E+00
   1.833000E+01   0.000000E+00   2.468000E-05   3.702000E-06   1.500000E+01   1.000000E+00
   2.027000E+01   0.000000E+00   2.151000E-05   3.226500E-06   1.500000E+01   1.000000E+00
   2.209000E+01   0.000000E+00   1.875000E-05   2.812500E-06   1.500000E+01   1.000000E+00
   2.391000E+01   0.000000E+00   1.540000E-05   2.310000E-06   1.500000E+01   1.000000E+00
   2.586000E+01   0.000000E+00   1.291000E-05   1.936500E-06   1.500000E+01   1.000000E+00
   2.794000E+01   0.000000E+00   1.103000E-05   1.654500E-06   1.500000E+01   1.000000E+00
   2.963000E+01   0.000000E+00   9.241000E-06   1.386100E-06   1.500000E+01   1.000000E+00
   3.170000E+01   0.000000E+00   8.383000E-06   1.257500E-06   1.500000E+01   1.000000E+00
   3.353000E+01   0.000000E+00   6.361000E-06   9.541500E-07   1.500000E+01   1.000000E+00
   3.534000E+01   0.000000E+00   5.769000E-06   8.653500E-07   1.500000E+01   1.000000E+00
   3.729000E+01   0.000000E+00   5.130000E-06   7.695000E-07   1.500000E+01   1.000000E+00
   3.924000E+01   0.000000E+00   4.131000E-06   6.196500E-07   1.500000E+01   1.000000E+00
   4.119000E+01   0.000000E+00   3.327000E-06   4.990500E-07   1.500000E+01   1.000000E+00
   4.301000E+01   0.000000E+00   2.524000E-06   3.786000E-07   1.500000E+01   1.000000E+00
   4.509000E+01   0.000000E+00   2.033000E-06   3.049500E-07   1.500000E+01   1.000000E+00
   4.691000E+01   0.000000E+00   1.808000E-06   2.712000E-07   1.500000E+01   1.000000E+00
   4.871000E+01   0.000000E+00   2.208000E-06   3.312000E-07   1.500000E+01   1.000000E+00
   5.067000E+01   0.000000E+00   1.401000E-06   2.101500E-07   1.500000E+01   1.000000E+00
   5.262000E+01   0.000000E+00   1.063000E-06   1.594500E-07   1.500000E+01   1.000000E+00
   5.458000E+01   0.000000E+00   8.070000E-07   1.210500E-07   1.500000E+01   1.000000E+00
   5.640000E+01   0.000000E+00   6.245000E-07   9.367500E-08   1.500000E+01   1.000000E+00
   5.835000E+01   0.000000E+00   5.233000E-07   7.849500E-08   1.500000E+01   1.000000E+00
   6.030000E+01   0.000000E+00   4.050000E-07   6.075000E-08   1.500000E+01   1.000000E+00
   6.238000E+01   0.000000E+00   3.262000E-07   4.893000E-08   1.500000E+01   1.000000E+00
   6.433000E+01   0.000000E+00   2.475000E-07   3.712500E-08   1.500000E+01   1.000000E+00
   6.628000E+01   0.000000E+00   1.770000E-07   2.655000E-08   1.500000E+01   1.000000E+00
   6.824000E+01   0.000000E+00   1.317000E-07   2.258000E-08   1.500000E+01   1.000000E+00
   7.005000E+01   0.000000E+00   1.243000E-07   2.427000E-08   1.500000E+01   1.000000E+00
   7.214000E+01   0.000000E+00   8.711000E-08   1.568000E-08   1.500000E+01   1.000000E+00
   7.382000E+01   0.000000E+00   7.592000E-08   1.849000E-08   1.500000E+01   1.000000E+00
   7.554000E+01   0.000000E+00   2.766000E-08   9.419001E-09   1.500000E+01   1.000000E+00
   7.760000E+01   0.000000E+00   4.119000E-08   1.119000E-08   1.500000E+01   1.000000E+00
   7.929000E+01   0.000000E+00   3.125000E-08   1.023000E-08   1.500000E+01   1.000000E+00
   8.137000E+01   0.000000E+00   2.724000E-08   9.437000E-09   1.500000E+01   1.000000E+00
# reference:
#   author: T.Fukuda, M.Ishihara, H.Ogata, I.Miura, T.Shimoda, K.Katori, S.Shimoura, M.-K.Tanaka, E.Takada, T.Otsuka
#   title: Light-particle emission in the reaction of 93Nb+14N at 132, 159 and 208 MeV
#   journal: Jour: Nuclear Physics, Section A, Vol.425, Issue.3, p.548 (1984)
