# header: 
#   title: Ni58(n,xg) DDX at  5.210000E+00 MeV
#   source: EXFOR
#   user: Arjan Koning
#   date: 2025-12-18
#   format: YANDF-0.4
# exfor: 
#   author: Sanami
#   year: 1998
#   subentry: 22354007
#   X4 reaction: 28-NI-58(N,A)26-FE-55,,DA/DE
#   X4 source: IAEA-NDS C5 file, database version 2023-08-08
#   X4 link: https://nds.iaea.org/EXFOR/22354007
# target: 
#   Z: 28
#   A: 58
#   nuclide: Ni58
# reaction: 
#   type: (n,xg)
#   ENDF_MF: 6
#   ENDF_MT: 107
#   E-incident [MeV]:  5.210000E+00
#   quantity: 
#     type: DDX
#   datablock: 
#     columns: 5
#     entries: 35
##     E-out         dE-out           xs             dxs       Normalization
##     [MeV]          [MeV]       [mb/MeV.sr]    [mb/MeV.sr]        []
   5.075000E+00   2.500000E-02   1.292800E-07   1.293300E-07   2.160000E+01   1.000000E+00
   5.300000E+00   2.000000E-01   6.504200E-08   6.506400E-08   2.160000E+01   1.000000E+00
   5.525000E+00   2.500000E-02   1.775100E-07   1.775700E-07   2.160000E+01   1.000000E+00
   5.575000E+00   2.500000E-02   1.167500E-07   9.347700E-08   2.160000E+01   1.000000E+00
   5.650000E+00   5.000000E-02   1.380900E-08   1.381400E-08   2.160000E+01   1.000000E+00
   5.725000E+00   2.500000E-02   3.565800E-08   3.524200E-08   2.160000E+01   1.000000E+00
   5.775000E+00   2.500000E-02   2.746700E-07   2.412100E-07   2.160000E+01   1.000000E+00
   5.825000E+00   2.500000E-02   1.886600E-07   1.349000E-07   2.160000E+01   1.000000E+00
   5.875000E+00   2.500000E-02   2.254900E-07   1.979300E-07   2.160000E+01   1.000000E+00
   5.925000E+00   2.500000E-02   9.838600E-08   9.842000E-08   2.160000E+01   1.000000E+00
   5.975000E+00   2.500000E-02   8.916700E-08   8.919699E-08   2.160000E+01   1.000000E+00
   6.025000E+00   2.500000E-02   4.199700E-07   2.367500E-07   2.160000E+01   1.000000E+00
   6.075000E+00   2.500000E-02   6.142700E-07   2.580800E-07   2.160000E+01   1.000000E+00
   6.125000E+00   2.500000E-02   3.775200E-07   2.096200E-07   2.160000E+01   1.000000E+00
   6.175000E+00   2.500000E-02   3.103200E-07   1.841400E-07   2.160000E+01   1.000000E+00
   6.225000E+00   2.500000E-02   3.828600E-07   2.131700E-07   2.160000E+01   1.000000E+00
   6.275000E+00   2.500000E-02   2.121300E-07   1.249200E-07   2.160000E+01   1.000000E+00
   6.325000E+00   2.500000E-02   1.259900E-07   7.405500E-08   2.160000E+01   1.000000E+00
   6.375000E+00   2.500000E-02   7.203100E-08   4.382700E-08   2.160000E+01   1.000000E+00
   6.425000E+00   2.500000E-02   7.117600E-07   3.510300E-07   2.160000E+01   1.000000E+00
   6.475000E+00   2.500000E-02   1.912300E-06   5.385600E-07   2.160000E+01   1.000000E+00
   6.525000E+00   2.500000E-02   1.947500E-06   4.841900E-07   2.160000E+01   1.000000E+00
   6.575000E+00   2.500000E-02   1.805200E-06   5.057700E-07   2.160000E+01   1.000000E+00
   6.625000E+00   2.500000E-02   1.706700E-06   5.063900E-07   2.160000E+01   1.000000E+00
   6.675000E+00   2.500000E-02   9.712199E-07   3.402500E-07   2.160000E+01   1.000000E+00
   6.725000E+00   2.500000E-02   7.196900E-07   3.663000E-07   2.160000E+01   1.000000E+00
   6.775000E+00   2.500000E-02   7.546300E-07   3.162400E-07   2.160000E+01   1.000000E+00
   6.825000E+00   2.500000E-02   8.356400E-07   4.000100E-07   2.160000E+01   1.000000E+00
   6.875000E+00   2.500000E-02   1.392600E-06   5.365300E-07   2.160000E+01   1.000000E+00
   6.925000E+00   2.500000E-02   1.328100E-06   4.462200E-07   2.160000E+01   1.000000E+00
   6.975000E+00   2.500000E-02   2.008600E-06   6.855300E-07   2.160000E+01   1.000000E+00
   7.025000E+00   2.500000E-02   1.882100E-06   6.061900E-07   2.160000E+01   1.000000E+00
   7.075000E+00   2.500000E-02   1.446600E-06   5.453100E-07   2.160000E+01   1.000000E+00
   7.125000E+00   2.500000E-02   3.740100E-07   1.928700E-07   2.160000E+01   1.000000E+00
   7.175000E+00   2.500000E-02   4.612600E-07   2.873900E-07   2.160000E+01   1.000000E+00
# reference:
#   author: T.Sanami,M.Baba,T.Kawano,S.Matsuyama,T.Kiyosumi, Y.Nauchi,K.Saito,N.Hirakawa,N.Ito
#   title: High resolution measurements of double-differential  (n,alpha) cross-sections of Ni-58 and Ni-nat  between 4.2 and 6.5 MeV neutrons
#   journal: Jour: Jour. of Nuclear Science and Technology, Vol.35, p.851 (1998)
