# header: 
#   title: Yb171(n,res) resonance parameter
#   source: EXFOR
#   user: Arjan Koning
#   date: 2025-12-18
#   format: YANDF-0.4
# exfor: 
#   author: Mughabghab
#   year: 1968
#   subentry: 121300144
#   X4 reaction: 70-YB-171(N,EL),,WID/RED,,2G
#   X4 source: IAEA-NDS C5 file, database version 2023-08-08
#   X4 link: https://nds.iaea.org/EXFOR/121300144
# target: 
#   Z: 70
#   A: 171
#   nuclide: Yb171
# reaction: 
#   type: (n,res)
#   ENDF_MF: 402
#   ENDF_MT: 151
#   quantity: 
#     type: resonance parameter
#   datablock: 
#     columns: 5
#     entries: 27
##       E             dE             par           dpar       Normalization
##     [eV]           [eV]            []             []             []
   7.930000E-06   6.000000E-08   1.380000E-03   1.100000E-04   1.000000E+00
   1.310000E-05   1.000000E-07   1.440000E-03   8.000000E-05   1.000000E+00
   2.180000E-05   1.000000E-07   5.800000E-05   6.000000E-06   1.000000E+00
   2.800000E-05   1.000000E-07   6.680000E-04   4.500000E-05   1.000000E+00
   3.450000E-05   2.000000E-07   1.280000E-03   1.400000E-04   1.000000E+00
   4.140000E-05   2.000000E-07   2.310000E-03   2.300000E-04   1.000000E+00
   4.640000E-05   3.000000E-07   2.500000E-04   3.000000E-05   1.000000E+00
   5.290000E-05   3.000000E-07   1.200000E-03   3.000000E-04   1.000000E+00
   5.420000E-05   3.000000E-07   4.100000E-03   7.000000E-04   1.000000E+00
   6.020000E-05   4.000000E-07   1.200000E-03   1.000000E-04   1.000000E+00
   6.480001E-05   4.000000E-07   2.000000E-03   2.000000E-04   1.000000E+00
   7.710000E-05   6.000000E-07   2.500000E-03   3.000000E-04   1.000000E+00
   8.180000E-05   6.000000E-07   5.600000E-04   1.300000E-04   1.000000E+00
   8.450000E-05   7.000000E-07   4.600000E-04   9.000000E-05   1.000000E+00
   9.530001E-05   8.000000E-07   5.600000E-04   7.000000E-05   1.000000E+00
   1.071000E-04   1.000000E-06   7.400000E-03   8.000000E-04   1.000000E+00
   1.119000E-04   1.100000E-06   2.730000E-03   2.800000E-04   1.000000E+00
   1.270000E-04   1.300000E-06   2.850000E-03   4.500000E-04   1.000000E+00
   1.391000E-04   1.500000E-06   2.800000E-03   7.600000E-04   1.000000E+00
   1.455000E-04   1.600000E-06   9.900000E-04   3.300000E-04   1.000000E+00
   1.599000E-04   1.800000E-06   7.100000E-03   1.700000E-03   1.000000E+00
   1.652000E-04   2.000000E-06   5.450000E-03   1.250000E-03   1.000000E+00
   1.755000E-04   2.100000E-06   1.580000E-03   4.500000E-04   1.000000E+00
   1.800000E-04   2.200000E-06   1.720000E-03   4.500000E-04   1.000000E+00
   1.942000E-04   2.500000E-06   1.100000E-03   2.000000E-04   1.000000E+00
   2.088000E-04   2.800000E-06   1.730000E-02   2.100000E-03   1.000000E+00
   2.252000E-04   3.100000E-06   2.000000E-03   3.000000E-04   1.000000E+00
# reference:
#   author: S.F.Mughabghab,R.E.Chrien
#   title: Neutron cross sections and resonance parameters of Yb isotopes.
#   journal: Jour: Physical Review, Vol.174, p.1400 (1968)
