# header: 
#   title: In115(n,res) resonance parameter
#   source: EXFOR
#   user: Arjan Koning
#   date: 2025-10-25
#   format: YANDF-0.4
# exfor: 
#   author: Frankle
#   year: 1993
#   subentry: 135910053
#   X4 reaction: 49-IN-115(N,EL),,WID/RED,,G
#   X4 source: IAEA-NDS C5 file, database version 2023-08-08
#   X4 link: https://nds.iaea.org/EXFOR/135910053
# target: 
#   Z: 49
#   A: 115
#   nuclide: In115
# reaction: 
#   type: (n,res)
#   ENDF_MF: 402
#   ENDF_MT: 151
#   quantity: 
#     type: resonance parameter
#   datablock: 
#     columns: 5
#     entries: 39
##       E             dE             par           dpar       Normalization
##     [eV]           [eV]            []             []             []
   3.956000E-05   7.000000E-08   3.280000E-04   0.000000E+00   1.000000E+00
   4.637000E-05   8.000000E-08   1.900000E-05   0.000000E+00   1.000000E+00
   4.814000E-05   8.000000E-08   3.300000E-05   0.000000E+00   1.000000E+00
   6.293000E-05   1.100000E-07   4.300000E-05   0.000000E+00   1.000000E+00
   6.947000E-05   1.200000E-07   2.400000E-05   0.000000E+00   1.000000E+00
   8.079000E-05   1.400000E-07   9.500000E-05   0.000000E+00   1.000000E+00
   8.321000E-05   1.500000E-07   3.370000E-04   0.000000E+00   1.000000E+00
   9.430001E-05   1.700000E-07   1.120000E-04   0.000000E+00   1.000000E+00
   1.258000E-04   2.000000E-07   1.530000E-04   0.000000E+00   1.000000E+00
   1.328000E-04   2.000000E-07   1.150000E-04   0.000000E+00   1.000000E+00
   1.501000E-04   3.000000E-07   1.600000E-04   0.000000E+00   1.000000E+00
   1.644000E-04   3.000000E-07   5.770000E-04   0.000000E+00   1.000000E+00
   1.680000E-04   3.000000E-07   1.000000E-04   0.000000E+00   1.000000E+00
   1.777000E-04   3.000000E-07   1.450000E-04   0.000000E+00   1.000000E+00
   1.864000E-04   3.000000E-07   7.000000E-04   0.000000E+00   1.000000E+00
   2.055000E-04   4.000000E-07   6.800000E-04   0.000000E+00   1.000000E+00
   2.119000E-04   4.000000E-07   2.000000E-05   0.000000E+00   1.000000E+00
   2.235000E-04   4.000000E-07   8.700000E-04   0.000000E+00   1.000000E+00
   2.266000E-04   4.000000E-07   1.500000E-04   0.000000E+00   1.000000E+00
   2.495000E-04   4.000000E-07   1.090000E-03   0.000000E+00   1.000000E+00
   2.666000E-04   5.000000E-07   1.800000E-04   0.000000E+00   1.000000E+00
   2.884000E-04   5.000000E-07   7.300000E-04   0.000000E+00   1.000000E+00
   2.937000E-04   5.000000E-07   1.100000E-03   0.000000E+00   1.000000E+00
   3.190000E-04   6.000000E-07   4.300000E-04   0.000000E+00   1.000000E+00
   3.395000E-04   6.000000E-07   1.100000E-04   0.000000E+00   1.000000E+00
   3.532000E-04   6.000000E-07   5.500000E-04   0.000000E+00   1.000000E+00
   3.618000E-04   6.000000E-07   3.800000E-04   0.000000E+00   1.000000E+00
   3.706000E-04   7.000000E-07   2.000000E-04   0.000000E+00   1.000000E+00
   3.828000E-04   7.000000E-07   3.000000E-04   0.000000E+00   1.000000E+00
   4.015000E-04   7.000000E-07   7.400000E-04   0.000000E+00   1.000000E+00
   4.112000E-04   7.000000E-07   5.900000E-04   0.000000E+00   1.000000E+00
   4.215000E-04   7.000000E-07   2.400000E-04   0.000000E+00   1.000000E+00
   4.372000E-04   8.000000E-07   2.500000E-05   0.000000E+00   1.000000E+00
   4.484000E-04   8.000000E-07   3.900000E-04   0.000000E+00   1.000000E+00
   4.534000E-04   8.000000E-07   2.800000E-04   0.000000E+00   1.000000E+00
   4.566000E-04   8.000000E-07   2.200000E-04   0.000000E+00   1.000000E+00
   4.698000E-04   8.000000E-07   8.800000E-05   0.000000E+00   1.000000E+00
   4.775000E-04   8.000000E-07   6.900000E-05   0.000000E+00   1.000000E+00
   4.982000E-04   9.000000E-07   6.700000E-05   0.000000E+00   1.000000E+00
# reference:
#   author: C.M.FRANKLE,J.D.BOWMAN,B.E.CRAWFORD,P.P.J.DELHEIJ, C.R.GOULD,D.G.HAASE,J.N.KNUDSON,G.E.MITCHELL, S.S.PATTERSON,S.I.PENTTILA,YU.P.POPOV,N.R.ROBERSON, S.J.SEESTROM,E.I.SHARAPOV,Y.F.YEN,S.H.YOO,V.W.YUAN, X.ZHU
#   title: Neutron resonance spectroscopy of 113In and 115In
#   journal: Jour: Physical Review, Part C, Nuclear Physics, Vol.48, p.1601 (1993)
