# header: 
#   title: In115(n,res) resonance parameter
#   source: EXFOR
#   user: Arjan Koning
#   date: 2025-12-18
#   format: YANDF-0.4
# exfor: 
#   author: Frankle
#   year: 1993
#   subentry: 135910062
#   X4 reaction: 49-IN-115(N,EL),,WID,,G
#   X4 source: IAEA-NDS C5 file, database version 2023-08-08
#   X4 link: https://nds.iaea.org/EXFOR/135910062
# target: 
#   Z: 49
#   A: 115
#   nuclide: In115
# reaction: 
#   type: (n,res)
#   ENDF_MF: 402
#   ENDF_MT: 151
#   quantity: 
#     type: resonance parameter
#   datablock: 
#     columns: 5
#     entries: 53
##       E             dE             par           dpar       Normalization
##     [eV]           [eV]            []             []             []
   2.967000E-05   5.000000E-08   1.100000E-06   1.000000E-07   1.000000E+00
   4.066000E-05   7.000000E-08   4.100000E-06   5.000000E-07   1.000000E+00
   5.870000E-05   1.000000E-07   1.400000E-07   2.000000E-08   1.000000E+00
   6.640000E-05   1.200000E-07   4.000000E-08   2.000000E-09   1.000000E+00
   7.304000E-05   1.300000E-07   1.100000E-05   1.000000E-06   1.000000E+00
   7.789000E-05   1.400000E-07   1.500000E-06   6.000000E-07   1.000000E+00
   8.550000E-05   1.500000E-07   3.000000E-06   1.000000E-06   1.000000E+00
   8.632000E-05   1.500000E-07   1.700000E-05   1.000000E-06   1.000000E+00
   8.840000E-05   1.600000E-07   1.700000E-06   5.000000E-07   1.000000E+00
   1.008000E-04   2.000000E-07   3.200000E-05   2.000000E-06   1.000000E+00
   1.037000E-04   2.000000E-07   4.000000E-07   2.000000E-07   1.000000E+00
   1.108000E-04   2.000000E-07   1.600000E-05   2.000000E-06   1.000000E+00
   1.143000E-04   2.000000E-07   7.200000E-05   4.000000E-06   1.000000E+00
   1.206000E-04   2.000000E-07   2.500000E-05   3.000000E-06   1.000000E+00
   1.441000E-04   3.000000E-07   9.300000E-05   7.000000E-06   1.000000E+00
   1.457000E-04   3.000000E-07   3.600000E-05   7.000000E-06   1.000000E+00
   1.469000E-04   3.000000E-07   4.500000E-05   8.000000E-06   1.000000E+00
   1.565000E-04   3.000000E-07   8.000000E-06   3.000000E-06   1.000000E+00
   1.586000E-04   3.000000E-07   5.200000E-05   5.000000E-06   1.000000E+00
   1.622000E-04   3.000000E-07   1.100000E-04   2.000000E-05   1.000000E+00
   1.742000E-04   3.000000E-07   9.600000E-05   5.000000E-06   1.000000E+00
   1.909000E-04   3.000000E-07   8.000000E-05   4.000000E-05   1.000000E+00
   1.924000E-04   3.000000E-07   3.700000E-04   9.000000E-05   1.000000E+00
   1.945000E-04   3.000000E-07   5.000000E-05   4.000000E-05   1.000000E+00
   1.987000E-04   3.000000E-07   3.400000E-05   9.000000E-06   1.000000E+00
   2.141000E-04   4.000000E-07   9.000000E-05   1.000000E-05   1.000000E+00
   2.197000E-04   4.000000E-07   1.400000E-05   6.000000E-06   1.000000E+00
   2.467000E-04   4.000000E-07   9.000000E-05   3.000000E-05   1.000000E+00
   2.645000E-04   5.000000E-07   4.000000E-05   2.000000E-05   1.000000E+00
   2.750000E-04   5.000000E-07   1.000000E-05   1.000000E-05   1.000000E+00
   2.769000E-04   5.000000E-07   4.000000E-05   1.000000E-05   1.000000E+00
   2.823000E-04   5.000000E-07   5.000000E-05   2.000000E-05   1.000000E+00
   2.851000E-04   5.000000E-07   1.400000E-05   6.000000E-06   1.000000E+00
   3.028000E-04   5.000000E-07   2.100000E-04   7.000000E-05   1.000000E+00
   3.041000E-04   5.000000E-07   1.600000E-04   9.000000E-05   1.000000E+00
   3.082000E-04   5.000000E-07   6.000000E-05   2.000000E-05   1.000000E+00
   3.134000E-04   6.000000E-07   1.100000E-04   9.000000E-05   1.000000E+00
   3.170000E-04   6.000000E-07   7.000000E-06   5.000000E-06   1.000000E+00
   3.258000E-04   6.000000E-07   2.900000E-04   6.000000E-05   1.000000E+00
   3.295000E-04   6.000000E-07   1.800000E-04   6.000000E-05   1.000000E+00
   3.335000E-04   6.000000E-07   3.000000E-04   1.000000E-04   1.000000E+00
   3.367000E-04   6.000000E-07   4.000000E-04   1.000000E-04   1.000000E+00
   3.447000E-04   6.000000E-07   1.100000E-04   4.000000E-05   1.000000E+00
   3.670000E-04   6.000000E-07   3.800000E-04   5.000000E-05   1.000000E+00
   3.790000E-04   7.000000E-07   7.100000E-04   4.000000E-05   1.000000E+00
   3.895000E-04   7.000000E-07   5.800000E-05   6.000000E-06   1.000000E+00
   3.947000E-04   7.000000E-07   2.000000E-04   1.000000E-04   1.000000E+00
   3.982000E-04   7.000000E-07   2.000000E-04   1.000000E-04   1.000000E+00
   4.312000E-04   8.000000E-07   9.000000E-05   5.000000E-05   1.000000E+00
   4.740000E-04   8.000000E-07   6.000000E-04   2.000000E-04   1.000000E+00
   4.814000E-04   8.000000E-07   2.000000E-04   1.000000E-04   1.000000E+00
   4.881000E-04   9.000000E-07   1.600000E-04   5.000000E-05   1.000000E+00
   4.937000E-04   9.000000E-07   1.800000E-04   6.000000E-05   1.000000E+00
# reference:
#   author: C.M.FRANKLE,J.D.BOWMAN,B.E.CRAWFORD,P.P.J.DELHEIJ, C.R.GOULD,D.G.HAASE,J.N.KNUDSON,G.E.MITCHELL, S.S.PATTERSON,S.I.PENTTILA,YU.P.POPOV,N.R.ROBERSON, S.J.SEESTROM,E.I.SHARAPOV,Y.F.YEN,S.H.YOO,V.W.YUAN, X.ZHU
#   title: Neutron resonance spectroscopy of 113In and 115In
#   journal: Jour: Physical Review, Part C, Nuclear Physics, Vol.48, p.1601 (1993)
